File: Nanoindentation Datenauswertung/data/labview program test/program test-18
Quasi static measurement routine
Tip parameters (shape,radius, material...)
06.07.2022

Piezo position[nm]	MEMS displ.[nm]	Time[ms]	Cap [pf]
eoh
2,252057	0,091131	0,196	-0,100701
2,258027	-0,397150	0,348	-0,100913
2,264041	-0,160885	0,499	-0,100810
2,270020	-0,579412	0,649	-0,100992
2,276069	-0,838179	0,801	-0,101104
2,282079	-1,098070	0,951	-0,101217
2,287995	-1,144198	1,102	-0,101237
2,293995	-1,524473	1,253	-0,101402
2,300039	-1,608853	1,403	-0,101438
2,306030	-2,012754	1,557	-0,101614
2,312027	-2,584290	1,708	-0,101862
2,318061	-2,988191	1,876	-0,102037
2,324026	-3,232332	2,027	-0,102143
2,330007	-3,505724	2,178	-0,102262
2,335996	-3,772366	2,329	-0,102377
2,342098	-4,535165	2,480	-0,102708
2,348021	-6,600797	2,632	-0,103605
2,354019	-6,501791	2,782	-0,103562
2,360026	-6,607548	2,933	-0,103608
2,366056	-6,615423	3,083	-0,103611
2,372061	-7,584110	3,233	-0,104032
2,378040	-7,370347	3,383	-0,103939
2,384085	-7,263465	3,533	-0,103893
2,390020	-7,827126	3,684	-0,104137
2,396026	-9,664369	3,840	-0,104935
2,402047	-7,186960	3,991	-0,103859
2,408028	-4,032258	4,144	-0,102490
2,414006	-0,869681	4,294	-0,101118
2,420015	0,807802	4,445	-0,100390
2,426019	4,602670	4,596	-0,098743
2,432000	6,981072	4,751	-0,097710
2,438000	12,308288	4,902	-0,095398
2,444026	15,989523	5,055	-0,093801
2,450091	18,595190	5,206	-0,092670
2,456036	22,939093	5,357	-0,090785
2,462039	26,444817	5,507	-0,089263
2,467989	30,454574	5,660	-0,087523
2,473998	35,224879	5,810	-0,085453
2,480018	37,976806	5,960	-0,084258
2,486040	42,678481	6,111	-0,082218
2,492003	45,887187	6,272	-0,080825
2,497977	49,027263	6,423	-0,079462
2,504023	52,929012	6,573	-0,077769
2,510011	55,176906	6,743	-0,076793
2,516014	60,230730	6,894	-0,074600
2,522004	61,990342	7,046	-0,073836
2,528018	66,045102	7,199	-0,072077
2,534051	68,605766	7,350	-0,070965
2,540037	72,440011	7,513	-0,069301
2,546020	74,253627	7,663	-0,068514
2,552050	79,161191	7,814	-0,066384
2,558018	83,292456	7,964	-0,064591
2,564014	85,479596	8,115	-0,063642
2,570026	88,535291	8,265	-0,062316
2,576010	92,147897	8,419	-0,060748
2,582051	96,293788	8,570	-0,058949
2,588007	98,672190	8,722	-0,057917
2,594025	102,117160	8,873	-0,056421
2,600030	106,499316	9,024	-0,054520
2,605995	108,563823	9,187	-0,053624
2,612013	112,230433	9,338	-0,052032
2,618036	115,423387	9,488	-0,050646
2,624038	119,630031	9,639	-0,048821
2,630092	122,983871	9,792	-0,047365
2,636015	126,199327	9,954	-0,045970
2,642011	129,286524	10,105	-0,044630
2,648007	133,074642	10,256	-0,042986
2,653999	137,646934	10,406	-0,041001
2,660023	140,154720	10,557	-0,039913
2,665985	144,811393	10,708	-0,037892
2,671998	147,127916	10,858	-0,036887
2,678003	151,441442	11,008	-0,035015
2,683964	155,450074	11,158	-0,033275
2,690006	157,935358	11,310	-0,032196
2,696001	160,983178	11,460	-0,030874
2,702007	164,961433	11,611	-0,029147
2,707971	168,558288	11,762	-0,027586
2,714048	172,857188	11,913	-0,025720
2,719983	177,163963	12,063	-0,023851
2,726073	180,363668	12,214	-0,022462
2,732027	185,157600	12,367	-0,020382
2,738040	187,481999	12,517	-0,019373
2,744052	192,329934	12,667	-0,017269
2,750013	194,761215	12,818	-0,016214
2,751982	197,214997	12,972	-0,015149
2,752004	196,986607	13,124	-0,015248
2,751966	197,146367	13,274	-0,015179
2,752001	196,811096	13,428	-0,015324
2,752010	196,589457	13,578	-0,015420
2,751963	196,681713	13,736	-0,015380
2,752037	196,917978	13,886	-0,015278
2,751944	196,704214	14,038	-0,015371
2,752006	196,589457	14,192	-0,015420
2,752075	196,467949	14,342	-0,015473
2,752026	196,605208	14,492	-0,015414
2,752014	196,483700	14,642	-0,015466
2,752007	196,124802	14,792	-0,015622
2,751995	196,597332	14,943	-0,015417
2,752055	196,193431	15,094	-0,015592
2,751959	196,330690	15,245	-0,015533
2,752013	196,619834	15,396	-0,015407
2,752005	196,415071	15,548	-0,015496
2,752024	196,514077	15,698	-0,015453
2,752020	196,415071	15,859	-0,015496
2,751994	196,726716	16,009	-0,015361
2,752018	196,566955	16,159	-0,015430
2,752039	196,415071	16,311	-0,015496
2,752044	196,734591	16,462	-0,015357
2,752028	196,140553	16,614	-0,015615
2,752021	196,643460	16,765	-0,015397
2,752026	196,681713	16,918	-0,015380
2,752016	196,521952	17,069	-0,015450
2,752035	196,345316	17,220	-0,015526
2,751987	196,536578	17,371	-0,015443
2,751968	196,764968	17,522	-0,015344
2,751996	196,574831	17,672	-0,015427
2,752011	196,582706	17,823	-0,015423
2,749998	196,201307	17,974	-0,015589
2,743997	192,070042	18,126	-0,017382
2,738018	186,201667	18,276	-0,019929
2,731989	182,734195	18,426	-0,021434
2,726043	178,299161	18,577	-0,023358
2,720014	174,450290	18,728	-0,025029
2,714063	170,692549	18,879	-0,026660
2,707971	166,478030	19,030	-0,028489
2,702003	161,280197	19,182	-0,030745
2,695986	158,140121	19,333	-0,032107
2,689966	153,598205	19,485	-0,034079
2,684022	149,444439	19,636	-0,035881
2,678020	144,613380	19,786	-0,037978
2,672000	141,107656	19,937	-0,039500
2,666022	137,052896	20,089	-0,041259
2,660013	132,495230	20,248	-0,043237
2,654004	128,143451	20,399	-0,045126
2,647991	123,197635	20,550	-0,047272
2,642015	119,668284	20,747	-0,048804
2,636010	115,278253	20,899	-0,050709
2,630015	109,508884	21,050	-0,053213
2,624001	105,607134	21,200	-0,054907
2,618017	102,147537	21,362	-0,056408
2,612015	96,766318	21,514	-0,058744
2,606005	93,557613	21,665	-0,060136
2,599998	88,161767	21,816	-0,062478
2,594033	85,075695	21,967	-0,063817
2,587985	79,992620	22,118	-0,066023
2,582020	76,699534	22,280	-0,067453
2,575967	72,477139	22,430	-0,069285
2,570017	66,944034	22,581	-0,071687
2,564076	64,201109	22,731	-0,072877
2,558004	58,805264	22,882	-0,075219
2,552003	55,451424	23,034	-0,076674
2,546025	51,123272	23,184	-0,078553
2,540005	46,527353	23,334	-0,080547
2,534045	42,137322	23,487	-0,082453
2,528044	36,947365	23,637	-0,084705
2,522048	33,647528	23,788	-0,086137
2,516030	29,974168	23,938	-0,087731
2,510024	25,469380	24,088	-0,089687
2,504056	20,111787	24,238	-0,092012
2,498028	16,781574	24,389	-0,093457
2,492031	11,393604	24,541	-0,095795
2,486009	8,238902	24,693	-0,097165
2,480032	3,734114	24,843	-0,099120
2,474032	3,978255	24,998	-0,099014
2,467971	3,093948	25,162	-0,099397
2,462040	1,234204	25,322	-0,100205
2,455988	-0,815677	25,472	-0,101094
2,450062	-1,249955	25,623	-0,101283
2,443960	-3,186204	25,776	-0,102123
2,437975	-4,337153	25,927	-0,102623
2,432003	-6,447788	26,078	-0,103539
2,426019	-6,082139	26,253	-0,103380
2,420024	-6,303778	26,405	-0,103476
2,414020	-7,705618	26,559	-0,104084
2,408055	-9,084956	26,719	-0,104683
2,402022	-9,473106	26,871	-0,104852
2,395993	-10,982953	27,022	-0,105507
2,389988	-11,394729	27,188	-0,105686
2,384053	-11,195592	27,340	-0,105599
2,378009	-11,272096	27,516	-0,105632
2,372039	-9,999640	27,668	-0,105080
2,366035	-9,549611	27,819	-0,104885
2,360041	-9,145710	27,972	-0,104709
2,354034	-8,856567	28,122	-0,104584
2,348044	-8,765436	28,274	-0,104544
2,342077	-8,223151	28,425	-0,104309
2,336025	-7,491854	28,576	-0,103992
2,330002	-7,057577	28,726	-0,103803
2,324045	-6,439912	28,876	-0,103535
2,317977	-5,754743	29,027	-0,103238
2,312016	-6,173270	29,177	-0,103419
2,306033	-5,335091	29,328	-0,103056
2,300054	-3,513600	29,478	-0,102265
2,294047	-2,798054	29,628	-0,101955
2,288019	-2,454907	29,780	-0,101806
2,282019	-2,188265	29,949	-0,101690
2,276019	-2,096009	30,101	-0,101650
2,270020	-1,653856	30,252	-0,101458
2,264041	-1,082319	30,406	-0,101210
2,258038	-0,488281	30,578	-0,100952
2,252044	-0,465780	30,729	-0,100942