File: Nanoindentation Datenauswertung/data/labview program test/program test-8
Quasi static measurement routine
Tip parameters (shape,radius, material...)
06.07.2022

Piezo position[nm]	MEMS displ.[nm]	Time[ms]	Cap [pf]
eoh
2,261996	-23,542132	0,188	-0,100565
2,267065	-23,649014	0,439	-0,100611
2,272029	-23,740144	0,690	-0,100651
2,277042	-23,992160	0,942	-0,100760
2,282039	-24,190173	1,195	-0,100846
2,287047	-24,525445	1,447	-0,100992
2,292027	-24,365684	1,701	-0,100922
2,297087	-24,640202	1,952	-0,101042
2,302061	-24,898969	2,205	-0,101154
2,307056	-25,044103	2,455	-0,101217
2,312092	-25,356873	2,707	-0,101353
2,317033	-25,524509	2,959	-0,101425
2,322034	-26,118547	3,212	-0,101683
2,327020	-26,506696	3,462	-0,101852
2,332129	-26,873470	3,712	-0,102011
2,336995	-26,766588	3,963	-0,101964
2,342031	-27,116485	4,214	-0,102116
2,347043	-27,443881	4,465	-0,102258
2,352075	-27,322374	4,717	-0,102206
2,357064	-27,154738	4,969	-0,102133
2,362081	-27,657645	5,221	-0,102351
2,367104	-27,848907	5,473	-0,102434
2,372073	-28,222431	5,723	-0,102596
2,377057	-28,549827	5,973	-0,102738
2,382065	-28,435070	6,225	-0,102688
2,387038	-28,412568	6,476	-0,102679
2,392072	-28,130175	6,727	-0,102556
2,397046	-28,489073	6,977	-0,102712
2,402031	-31,887916	7,229	-0,104187
2,407051	-30,173306	7,481	-0,103443
2,412037	-27,833156	7,732	-0,102427
2,417064	-24,922595	7,984	-0,101164
2,422060	-22,521691	8,237	-0,100122
2,427003	-20,288423	8,488	-0,099153
2,432029	-17,772762	8,741	-0,098061
2,437066	-14,435799	8,992	-0,096613
2,442040	-11,120212	9,244	-0,095174
2,447069	-7,681992	9,496	-0,093682
2,452040	-4,291025	9,749	-0,092210
2,456996	-0,853930	9,999	-0,090718
2,462051	2,560664	10,249	-0,089236
2,467020	6,050637	10,501	-0,087722
2,472039	8,633803	10,752	-0,086601
2,477052	11,591617	11,005	-0,085317
2,482014	14,586559	11,257	-0,084017
2,487045	17,749136	11,509	-0,082645
2,492081	20,622570	11,763	-0,081397
2,497047	23,305867	12,014	-0,080233
2,502043	26,589952	12,267	-0,078808
2,507074	29,600644	12,518	-0,077501
2,512044	32,367197	12,770	-0,076300
2,517031	35,682784	13,020	-0,074861
2,522058	39,043374	13,273	-0,073403
2,527038	41,672667	13,524	-0,072262
2,532049	44,964628	13,775	-0,070833
2,537021	48,104704	14,027	-0,069470
2,542064	51,610428	14,278	-0,067949
2,547059	54,445610	14,528	-0,066718
2,552037	58,126845	14,778	-0,065121
2,557069	61,167915	15,030	-0,063801
2,562008	64,193233	15,280	-0,062488
2,567060	66,899032	15,531	-0,061313
2,572051	70,679273	15,782	-0,059673
2,577035	74,260378	16,033	-0,058119
2,582024	77,363326	16,283	-0,056772
2,587011	80,449399	16,536	-0,055433
2,592028	83,535471	16,793	-0,054093
2,597081	86,729551	17,043	-0,052707
2,602073	89,137205	17,293	-0,051662
2,607056	92,468543	17,544	-0,050216
2,612066	94,868322	17,796	-0,049175
2,617030	97,368232	18,047	-0,048090
2,622095	100,035777	18,302	-0,046932
2,627038	102,527812	18,552	-0,045851
2,632045	105,691514	18,806	-0,044478
2,636996	108,564948	19,059	-0,043230
2,642037	110,903973	19,309	-0,042215
2,647071	113,922541	19,560	-0,040905
2,652044	116,695844	19,813	-0,039702
2,657098	119,462396	20,063	-0,038501
2,662086	122,275076	20,314	-0,037280
2,666993	124,446465	20,566	-0,036338
2,672065	127,228768	20,821	-0,035130
2,677003	130,048198	21,074	-0,033907
2,682055	132,669616	21,325	-0,032769
2,687041	135,391165	21,575	-0,031588
2,692035	139,187158	21,827	-0,029940
2,697034	141,077279	22,078	-0,029120
2,702041	143,630067	22,329	-0,028012
2,707056	146,533878	22,581	-0,026752
2,712041	149,940596	22,832	-0,025273
2,717020	152,806155	23,083	-0,024030
2,722057	155,518703	23,333	-0,022853
2,727026	158,604776	23,584	-0,021513
2,732044	161,950740	23,834	-0,020061
2,737019	164,634037	24,088	-0,018896
2,742050	167,255454	24,340	-0,017759
2,747024	170,304399	24,593	-0,016436
2,752045	173,367971	24,843	-0,015106
2,757064	175,425727	25,093	-0,014213
2,762075	177,734375	25,345	-0,013211
2,761982	177,467733	25,596	-0,013327
2,762066	176,758938	25,850	-0,013634
2,762025	176,774689	26,102	-0,013627
2,762050	176,362912	26,352	-0,013806
2,762023	176,241404	26,604	-0,013859
2,762040	176,217778	26,854	-0,013869
2,761970	176,203152	27,107	-0,013875
2,761972	175,928634	27,361	-0,013995
2,762023	175,852130	27,614	-0,014028
2,762019	175,654117	27,864	-0,014114
2,761992	175,562986	28,115	-0,014153
2,762039	175,684494	28,366	-0,014101
2,762007	175,463980	28,616	-0,014196
2,761991	175,310970	28,869	-0,014263
2,762080	175,516858	29,120	-0,014173
2,762039	175,349222	29,372	-0,014246
2,762049	175,060079	29,624	-0,014372
2,762011	175,288468	29,876	-0,014272
2,762064	175,173711	30,127	-0,014322
2,762034	175,013951	30,378	-0,014392
2,757013	171,920003	30,630	-0,015734
2,752034	168,398528	30,884	-0,017263
2,747053	165,189822	31,136	-0,018655
2,742000	160,853795	31,389	-0,020537
2,737032	157,835226	31,643	-0,021847
2,732005	154,215870	31,893	-0,023418
2,727012	150,831653	32,144	-0,024887
2,722046	147,135792	32,395	-0,026491
2,717056	142,974150	32,647	-0,028297
2,712046	140,215474	32,900	-0,029494
2,707054	136,404855	33,152	-0,031148
2,702066	132,647114	33,404	-0,032779
2,697044	129,446285	33,657	-0,034168
2,692040	125,536659	33,908	-0,035865
2,687022	121,871175	34,158	-0,037456
2,682057	118,692846	34,409	-0,038835
2,677041	114,577333	34,662	-0,040621
2,671986	111,299998	34,914	-0,042043
2,667082	107,749271	35,165	-0,043584
2,662015	104,235671	35,418	-0,045109
2,657021	100,714196	35,671	-0,046638
2,652040	97,056587	35,923	-0,048225
2,647044	93,595865	36,175	-0,049727
2,642007	89,922505	36,425	-0,051321
2,637048	85,822743	36,684	-0,053101
2,631999	82,614037	36,952	-0,054493
2,627101	78,948553	37,204	-0,056084
2,621992	76,212378	37,458	-0,057271
2,617012	72,157618	37,712	-0,059031
2,612053	68,468507	37,963	-0,060632
2,607066	65,146169	38,214	-0,062074
2,602043	61,563940	38,465	-0,063629
2,597038	58,080717	38,715	-0,065141
2,592045	54,239721	38,967	-0,066808
2,587066	50,840879	39,219	-0,068283
2,581984	47,442036	39,471	-0,069758
2,577060	43,714673	39,724	-0,071375
2,572046	40,475590	39,975	-0,072781
2,567085	36,520962	40,228	-0,074498
2,562036	33,205375	40,478	-0,075937
2,557048	29,417258	40,729	-0,077581
2,552023	26,109546	40,988	-0,079016
2,546990	22,680327	41,251	-0,080504
2,542006	19,402992	41,503	-0,081927
2,536972	15,478741	41,755	-0,083630
2,532029	11,903262	42,009	-0,085182
2,527072	7,979011	42,260	-0,086885
2,522026	4,709551	42,512	-0,088304
2,517001	1,652731	42,765	-0,089630
2,512050	-2,111760	43,017	-0,091264
2,507005	-5,587108	43,269	-0,092772
2,502026	-9,694745	43,523	-0,094555
2,497057	-12,705438	43,773	-0,095862
2,492045	-16,782699	44,023	-0,097631
2,487044	-18,002277	44,273	-0,098161
2,482036	-18,085532	44,523	-0,098197
2,477104	-19,175727	44,774	-0,098670
2,472007	-20,173666	45,024	-0,099103
2,467062	-21,164855	45,275	-0,099533
2,462064	-22,300052	45,525	-0,100026
2,457103	-23,847026	45,777	-0,100697
2,452028	-24,518694	46,028	-0,100989
2,446969	-26,126422	46,278	-0,101687
2,442061	-27,025355	46,528	-0,102077
2,437018	-27,665521	46,780	-0,102354
2,432043	-27,101860	47,031	-0,102110
2,427031	-28,237057	47,283	-0,102603
2,422086	-28,725338	47,537	-0,102814
2,417050	-30,249811	47,788	-0,103476
2,412094	-30,950731	48,041	-0,103780
2,407093	-31,895791	48,293	-0,104190
2,402051	-32,550583	48,544	-0,104475
2,397055	-33,671155	48,797	-0,104961
2,392000	-33,778037	49,049	-0,105007
2,387045	-33,533896	49,299	-0,104901
2,382047	-33,198625	49,550	-0,104756
2,377058	-33,153622	49,801	-0,104736
2,372080	-32,330069	50,052	-0,104379
2,367029	-31,956545	50,304	-0,104217
2,362024	-31,865414	50,564	-0,104177
2,356953	-31,461514	50,817	-0,104002
2,352090	-31,041862	51,067	-0,103820
2,347056	-31,011485	51,319	-0,103807
2,341989	-30,538954	51,570	-0,103602
2,337031	-30,347692	51,822	-0,103519
2,332008	-30,013546	52,072	-0,103374
2,327056	-29,670399	52,323	-0,103225
2,321982	-29,319376	52,573	-0,103072
2,317095	-26,003789	52,825	-0,101633
2,312017	-26,080294	53,075	-0,101667
2,307047	-25,424377	53,327	-0,101382
2,302042	-25,211739	53,582	-0,101290
2,297081	-25,005850	53,837	-0,101200
2,292039	-24,906844	54,089	-0,101157
2,287062	-24,784211	54,343	-0,101104
2,282051	-24,212675	54,594	-0,100856
2,276992	-24,182298	54,846	-0,100843
2,272015	-24,106918	55,097	-0,100810
2,267039	-23,703017	55,349	-0,100635
2,262023	-23,557883	55,602	-0,100572