File: Nanoindentation Datenauswertung/data/labview program test/program test-4
Quasi static measurement routine
Tip parameters (shape,radius, material...)
06.07.2022

Piezo position[nm]	MEMS displ.[nm]	Time[ms]	Cap [pf]
eoh
2,459970	-0,006750	0,076	-0,091082
2,463974	-0,403901	0,176	-0,091254
2,467984	2,744051	0,276	-0,089888
2,471989	5,693989	0,377	-0,088608
2,475966	9,153586	0,478	-0,087106
2,480044	10,769189	0,578	-0,086405
2,483976	13,154342	0,678	-0,085370
2,488004	15,403361	0,778	-0,084394
2,492024	17,689507	0,878	-0,083402
2,496038	19,945276	0,978	-0,082423
2,499993	22,354056	1,079	-0,081377
2,503982	24,662703	1,179	-0,080375
2,507992	28,687086	1,279	-0,078629
2,512045	30,195808	1,379	-0,077974
2,515972	33,884919	1,479	-0,076373
2,520022	33,884919	1,579	-0,076373
2,524011	35,912298	1,679	-0,075493
2,527961	38,350329	1,779	-0,074435
2,532018	40,926744	1,880	-0,073317
2,535990	43,464907	1,980	-0,072215
2,539992	45,690299	2,081	-0,071250
2,544007	48,929381	2,182	-0,069844
2,548005	51,009640	2,283	-0,068941
2,551962	52,876134	2,383	-0,068131
2,555988	55,643811	2,483	-0,066930
2,560042	57,845577	2,583	-0,065974
2,564021	62,563004	2,683	-0,063927
2,567968	62,693512	2,783	-0,063870
2,571962	65,010036	2,883	-0,062865
2,575972	67,449192	2,984	-0,061806
2,580049	72,600896	3,085	-0,059570
2,584001	72,288126	3,186	-0,059706
2,587960	74,658653	3,286	-0,058677
2,591971	77,013429	3,386	-0,057655
2,596000	79,779981	3,486	-0,056455
2,599986	82,081878	3,586	-0,055456
2,604014	84,756174	3,686	-0,054295
2,608021	87,348340	3,786	-0,053170
2,611986	89,862876	3,886	-0,052079
2,616030	91,936384	3,986	-0,051179
2,619933	94,695060	4,086	-0,049981
2,623988	96,904702	4,186	-0,049022
2,627956	99,717382	4,286	-0,047802
2,631962	102,102535	4,387	-0,046767
2,635958	104,884838	4,487	-0,045559
2,640025	107,163108	4,587	-0,044570
2,643962	112,940353	4,687	-0,042063
2,648007	113,152992	4,787	-0,041971
2,651998	115,737282	4,887	-0,040849
2,656004	118,350824	4,987	-0,039715
2,659965	121,034121	5,087	-0,038550
2,659940	123,700542	5,187	-0,037393
2,659978	123,922181	5,288	-0,037297
2,659965	123,419274	5,389	-0,037515
2,659939	123,609411	5,489	-0,037433
2,659976	123,502529	5,589	-0,037479
2,659962	123,655539	5,690	-0,037413
2,659941	123,586910	5,791	-0,037442
2,659957	123,464277	5,891	-0,037496
2,659994	123,358520	5,991	-0,037542
2,660010	123,571159	6,091	-0,037449
2,659974	123,556533	6,192	-0,037456
2,659971	123,419274	6,292	-0,037515
2,659990	123,464277	6,392	-0,037496
2,659994	123,312392	6,492	-0,037562
2,660002	123,373146	6,592	-0,037535
2,660008	123,427149	6,692	-0,037512
2,660016	123,427149	6,792	-0,037512
2,659986	123,724168	6,892	-0,037383
2,659968	123,342769	6,993	-0,037548
2,660003	123,480028	7,093	-0,037489
2,659950	123,427149	7,193	-0,037512
2,659954	123,685916	7,293	-0,037399
2,659978	123,472152	7,393	-0,037492
2,659959	123,312392	7,493	-0,037562
2,659971	123,640913	7,593	-0,037419
2,659950	123,464277	7,693	-0,037496
2,659970	123,899680	7,793	-0,037307
2,660005	123,388897	7,893	-0,037528
2,659935	123,472152	7,994	-0,037492
2,659979	123,160507	8,095	-0,037627
2,659975	123,534031	8,196	-0,037465
2,659939	123,449651	8,296	-0,037502
2,659956	123,251638	8,397	-0,037588
2,659973	123,205510	8,498	-0,037608
2,660007	123,274140	8,598	-0,037578
2,659925	123,334893	8,698	-0,037552
2,660026	123,229137	8,798	-0,037598
2,660006	123,358520	8,898	-0,037542
2,659952	123,640913	8,999	-0,037419
2,659982	123,136881	9,100	-0,037638
2,659984	123,746670	9,200	-0,037373
2,659946	123,366395	9,300	-0,037538
2,660013	123,350644	9,400	-0,037545
2,659989	123,388897	9,501	-0,037528
2,659968	123,205510	9,601	-0,037608
2,659977	123,328143	9,702	-0,037555
2,659978	123,320267	9,802	-0,037558
2,659968	123,235887	9,902	-0,037595
2,660007	123,571159	10,002	-0,037449
2,659971	123,130130	10,102	-0,037641
2,655991	123,274140	10,202	-0,037578
2,651968	117,444016	10,302	-0,040108
2,647969	117,520521	10,402	-0,040075
2,643960	114,654963	10,502	-0,041319
2,639985	111,759028	10,602	-0,042576
2,635949	108,900220	10,702	-0,043816
2,632036	106,034661	10,802	-0,045060
2,627980	103,138726	10,902	-0,046317
2,624005	100,182037	11,002	-0,047600
2,619997	94,733313	11,102	-0,049965
2,616006	95,174341	11,202	-0,049773
2,611929	92,050016	11,302	-0,051129
2,607990	89,032573	11,402	-0,052439
2,603968	86,234519	11,502	-0,053653
2,599998	83,674980	11,602	-0,054764
2,595994	80,565281	11,702	-0,056114
2,591922	77,950614	11,802	-0,057249
2,588002	72,074363	11,902	-0,059799
2,583988	71,853849	12,002	-0,059895
2,579983	69,155926	12,102	-0,061065
2,575980	66,092355	12,202	-0,062395
2,571944	60,703260	12,302	-0,064734
2,567924	60,703260	12,402	-0,064734
2,563919	57,617187	12,502	-0,066073
2,559960	54,591869	12,602	-0,067386
2,555979	49,226400	12,702	-0,069715
2,551982	49,210649	12,803	-0,069722
2,547963	46,314714	12,903	-0,070979
2,543942	43,761926	13,004	-0,072086
2,539974	37,778793	13,104	-0,074683
2,535995	37,931803	13,204	-0,074617
2,532013	35,332886	13,304	-0,075745
2,527956	32,360446	13,404	-0,077035
2,523964	29,281124	13,505	-0,078371
2,519907	26,271556	13,605	-0,079677
2,515943	23,275490	13,705	-0,080978
2,511944	21,233484	13,805	-0,081864
2,508000	15,326856	13,906	-0,084427
2,503982	14,732818	14,006	-0,084685
2,499989	12,362291	14,106	-0,085714
2,496000	9,282969	14,206	-0,087050
2,491946	3,650859	14,306	-0,089495
2,487957	3,605856	14,406	-0,089514
2,483970	0,914684	14,506	-0,090682
2,479955	-1,683108	14,606	-0,091810
2,475997	-7,613362	14,706	-0,094383
2,471962	-7,536857	14,806	-0,094350
2,468037	-11,179841	14,908	-0,095931
2,463938	-12,940578	15,008	-0,096695
2,459975	-18,572689	15,108	-0,099140