File: Nanoindentation Datenauswertung/data/labview program test/program test-11
Quasi static measurement routine
Tip parameters (shape,radius, material...)
06.07.2022

Piezo position[nm]	MEMS displ.[nm]	Time[ms]	Cap [pf]
eoh
2,253927	0,092256	0,181	-0,100826
2,278998	0,167636	0,682	-0,100793
2,303987	-0,648041	1,183	-0,101147
2,329006	-1,920498	1,683	-0,101700
2,353996	-3,215456	2,183	-0,102262
2,378964	-3,825245	2,683	-0,102526
2,404013	-8,543797	3,184	-0,104574
2,429026	-6,135018	3,684	-0,103529
2,454026	6,096765	4,184	-0,098220
2,478945	22,003033	4,684	-0,091317
2,504080	37,756291	5,186	-0,084480
2,529019	52,183090	5,686	-0,078219
2,554022	66,625639	6,186	-0,071951
2,578995	80,739667	6,687	-0,065825
2,604017	94,671434	7,187	-0,059779
2,629029	107,482629	7,687	-0,054219
2,654040	121,079124	8,187	-0,048318
2,679040	136,450983	8,687	-0,041646
2,703992	151,144423	9,188	-0,035270
2,729034	165,480091	9,688	-0,029048
2,754024	181,027461	10,188	-0,022300
2,753964	196,689588	10,688	-0,015503
2,753948	196,156304	11,188	-0,015734
2,753945	195,966167	11,688	-0,015817
2,753898	195,340627	12,188	-0,016088
2,753946	195,470010	12,688	-0,016032
2,753914	195,180867	13,188	-0,016158
2,753984	194,981729	13,688	-0,016244
2,753951	195,294499	14,189	-0,016108
2,753920	194,914225	14,689	-0,016273
2,753947	195,326001	15,190	-0,016095
2,728877	194,997480	15,690	-0,016237
2,703898	172,674926	16,191	-0,025925
2,678886	158,042240	16,691	-0,032276
2,653895	141,770323	17,191	-0,039338
2,628847	123,791673	17,692	-0,047141
2,603885	104,358304	18,193	-0,055575
2,578847	88,110014	18,693	-0,062626
2,553816	70,733277	19,193	-0,070168
2,528908	53,174278	19,693	-0,077789
2,503830	35,240630	20,193	-0,085572
2,478840	17,597251	20,694	-0,093229
2,453823	6,875315	21,194	-0,097882
2,428870	1,913747	21,694	-0,100036
2,403881	-3,101824	22,194	-0,102212
2,378915	-7,338845	22,694	-0,104051
2,353901	-9,457355	23,194	-0,104971
2,328820	-8,047640	23,694	-0,104359
2,303837	-6,135018	24,195	-0,103529
2,278831	-2,667546	24,695	-0,102024
2,253880	-0,983313	25,195	-0,101293