File: Nanoindentation Datenauswertung/data/labview program test/program test-5
Quasi static measurement routine
Tip parameters (shape,radius, material...)
06.07.2022

Piezo position[nm]	MEMS displ.[nm]	Time[ms]	Cap [pf]
eoh
2,534017	0,373524	0,082	-0,072265
2,536983	2,035255	0,162	-0,071544
2,539991	3,802743	0,278	-0,070777
2,544038	5,906628	0,411	-0,069864
2,547009	8,132020	0,492	-0,068898
2,550008	10,121148	0,572	-0,068035
2,553051	13,207220	0,653	-0,066695
2,556020	15,082715	0,733	-0,065881
2,560022	15,967022	0,848	-0,065498
2,562997	18,572689	0,928	-0,064367
2,565995	20,219794	1,008	-0,063652
2,568962	22,604947	1,089	-0,062617
2,571972	24,640202	1,169	-0,061733
2,575992	26,133173	1,292	-0,061085
2,579042	27,886035	1,381	-0,060325
2,581989	29,997795	1,462	-0,059408
2,584975	31,841788	1,542	-0,058608
2,588050	33,419139	1,654	-0,057923
2,591999	34,860356	1,734	-0,057298
2,595036	36,346576	1,816	-0,056653
2,598019	37,938553	1,898	-0,055962
2,601010	40,934620	2,011	-0,054662
2,603992	42,146322	2,092	-0,054136
2,607946	43,754050	2,173	-0,053438
2,611005	45,232395	2,254	-0,052796
2,614039	46,787244	2,335	-0,052122
2,617024	49,499793	2,444	-0,050944
2,620031	51,550799	2,524	-0,050054
2,624037	52,800754	2,605	-0,049512
2,627017	54,751629	2,687	-0,048665
2,630018	56,732881	2,822	-0,047805
2,633055	59,049404	2,903	-0,046800
2,636039	61,062158	2,983	-0,045926
2,639997	62,883650	3,063	-0,045136
2,642977	65,420687	3,143	-0,044035
2,646000	65,695204	3,259	-0,043916
2,649007	68,401003	3,340	-0,042741
2,652002	69,864721	3,421	-0,042106
2,656009	71,632209	3,502	-0,041339
2,659002	73,110554	3,608	-0,040697
2,662035	74,970298	3,688	-0,039890
2,665012	77,530962	3,769	-0,038779
2,668015	78,978930	3,849	-0,038150
2,672012	80,564156	3,929	-0,037462
2,675042	82,119006	4,038	-0,036788
2,677993	84,168887	4,120	-0,035898
2,681029	86,737426	4,201	-0,034783
2,684024	88,231522	4,282	-0,034135
2,687958	89,770620	4,362	-0,033467
2,690993	92,088269	4,477	-0,032461
2,694010	93,352850	4,557	-0,031912
2,696966	95,220469	4,637	-0,031102
2,700006	97,034085	4,718	-0,030314
2,704029	98,199660	4,841	-0,029809
2,707052	100,440803	4,921	-0,028836
2,710011	102,056407	5,002	-0,028135
2,713006	104,716077	5,082	-0,026980
2,715994	106,324930	5,163	-0,026282
2,720016	107,963035	5,283	-0,025571
2,722992	110,180552	5,363	-0,024609
2,726035	111,903037	5,444	-0,023861
2,728991	114,730343	5,524	-0,022634
2,732009	116,246940	5,638	-0,021976
2,733961	118,403703	5,719	-0,021040
2,733971	118,175313	5,800	-0,021139
2,733981	118,030179	5,882	-0,021202
2,733970	117,946924	5,962	-0,021238
2,733979	117,977301	6,092	-0,021225
2,733970	118,007677	6,172	-0,021212
2,733972	118,106684	6,253	-0,021169
2,733956	117,939048	6,334	-0,021242
2,734000	117,855793	6,458	-0,021278
2,733942	117,649905	6,540	-0,021367
2,734005	117,908671	6,620	-0,021255
2,734021	117,999802	6,700	-0,021215
2,734027	117,923297	6,821	-0,021249
2,733971	117,725284	6,901	-0,021334
2,733954	117,619528	6,981	-0,021380
2,733947	117,611652	7,063	-0,021384
2,734007	117,779288	7,143	-0,021311
2,734003	117,931173	7,259	-0,021245
2,734014	117,717409	7,340	-0,021338
2,733943	117,733160	7,422	-0,021331
2,733987	117,763537	7,502	-0,021318
2,734003	117,139122	7,620	-0,021589
2,733971	117,672406	7,700	-0,021357
2,733972	117,923297	7,782	-0,021249
2,733969	117,702783	7,863	-0,021344
2,733985	117,512646	7,944	-0,021427
2,734060	117,702783	8,064	-0,021344
2,733984	117,840042	8,144	-0,021285
2,734012	117,611652	8,225	-0,021384
2,734031	117,725284	8,305	-0,021334
2,734010	117,657780	8,423	-0,021364
2,734003	117,634154	8,504	-0,021374
2,734003	117,634154	8,585	-0,021374
2,734005	117,642029	8,665	-0,021371
2,733975	117,504770	8,745	-0,021430
2,733975	117,649905	8,855	-0,021367
2,733932	117,787163	8,936	-0,021308
2,734015	117,634154	9,017	-0,021374
2,733978	117,626278	9,098	-0,021377
2,734012	117,611652	9,217	-0,021384
2,733986	117,588026	9,297	-0,021394
2,733944	117,405764	9,379	-0,021473
2,734019	117,428265	9,459	-0,021463
2,733959	117,657780	9,539	-0,021364
2,734005	117,565524	9,655	-0,021404
2,733993	117,793914	9,735	-0,021305
2,734028	117,474393	9,817	-0,021443
2,733937	117,680282	9,897	-0,021354
2,733997	117,490144	10,016	-0,021437
2,733986	117,672406	10,098	-0,021357
2,733945	117,512646	10,178	-0,021427
2,733987	117,573400	10,258	-0,021400
2,733991	117,474393	10,338	-0,021443
2,733981	117,390013	10,468	-0,021480
2,733971	117,367512	10,548	-0,021490
2,733960	117,215627	10,628	-0,021556
2,734003	117,817540	10,709	-0,021294
2,733996	117,672406	10,828	-0,021357
2,733945	117,581275	10,909	-0,021397
2,733957	117,375387	10,989	-0,021486
2,733952	117,367512	11,069	-0,021490
2,734027	117,535147	11,149	-0,021417
2,733971	117,284256	11,262	-0,021526
2,730985	115,988173	11,343	-0,022088
2,727987	113,900040	11,423	-0,022995
2,724024	111,682523	11,503	-0,023957
2,721011	109,762025	11,611	-0,024791
2,717957	107,779648	11,691	-0,025651
2,714986	104,434809	11,771	-0,027103
2,711960	102,666196	11,852	-0,027870
2,707962	100,432928	11,934	-0,028839
2,704994	98,794823	12,056	-0,029550
2,701943	95,913513	12,137	-0,030801
2,698983	93,269594	12,217	-0,031948
2,695974	91,112831	12,297	-0,032884
2,691969	88,787307	12,378	-0,033894
2,689010	85,678733	12,491	-0,035243
2,685953	84,542411	12,572	-0,035736
2,682985	81,967121	12,652	-0,036854
2,679955	79,764230	12,732	-0,037810
2,675977	77,889860	12,851	-0,038623
2,672985	75,739847	12,932	-0,039556
2,669972	73,362570	13,012	-0,040588
2,666990	70,527389	13,092	-0,041818
2,663973	68,583264	13,172	-0,042662
2,659974	66,351121	13,290	-0,043631
2,657014	64,071726	13,370	-0,044620
2,654007	62,273861	13,450	-0,045400
2,650970	58,974024	13,530	-0,046833
2,647988	57,213287	13,650	-0,047597
2,643992	54,796632	13,730	-0,048646
2,640961	52,358601	13,810	-0,049704
2,638009	50,642866	13,890	-0,050448
2,634982	47,831311	14,056	-0,051668
2,632006	45,521538	14,136	-0,052671
2,627926	43,532411	14,217	-0,053534
2,624998	41,520782	14,298	-0,054407
2,621961	39,265013	14,379	-0,055386
2,619029	36,376953	14,495	-0,056640
2,615943	34,196564	14,575	-0,057586
2,611953	31,583021	14,655	-0,058720
2,608957	29,692900	14,735	-0,059541
2,606001	27,901786	14,848	-0,060318
2,602973	25,135234	14,928	-0,061519
2,600007	24,563697	15,009	-0,061767
2,596007	20,258047	15,090	-0,063635
2,592988	18,366800	15,170	-0,064456
2,590003	16,561060	15,302	-0,065240
2,586952	13,665125	15,382	-0,066497
2,584014	11,439732	15,462	-0,067462
2,580010	9,335847	15,542	-0,068375
2,576940	7,537982	15,653	-0,069156
2,573992	5,159580	15,734	-0,070188
2,570983	2,218642	15,814	-0,071464
2,567999	-0,113632	15,895	-0,072477
2,563990	-1,904747	15,975	-0,073254
2,561001	-4,008632	16,091	-0,074167
2,557973	-6,401660	16,171	-0,075206
2,554984	-9,122084	16,251	-0,076386
2,551969	-11,470109	16,331	-0,077405
2,548014	-12,460172	16,454	-0,077835
2,544970	-15,493367	16,535	-0,079151
2,541949	-17,764887	16,615	-0,080137
2,539006	-20,363803	16,696	-0,081265
2,535942	-22,520566	16,776	-0,082201
2,534037	-23,176483	16,849	-0,082486