File: Nanoindentation Datenauswertung/data/labview program test/program test-3
Quasi static measurement routine
Tip parameters (shape,radius, material...)
06.07.2022

Piezo position[nm]	MEMS displ.[nm]	Time[ms]	Cap [pf]
eoh
2,454036	-0,145134	0,026	-0,091760
2,479093	-1,463719	0,526	-0,092333
2,504133	14,693440	1,026	-0,085320
2,529081	29,097737	1,526	-0,079069
2,554161	44,469596	2,027	-0,072397
2,579082	58,912145	2,527	-0,066129
2,604049	74,132119	3,027	-0,059524
2,629123	89,031448	3,527	-0,053058
2,654127	104,326802	4,027	-0,046419
2,654021	120,384955	4,527	-0,039450
2,654002	120,202693	5,027	-0,039529
2,654010	120,126188	5,527	-0,039563
2,654028	120,035057	6,027	-0,039602
2,653998	120,103687	6,527	-0,039572
2,653960	120,132939	7,028	-0,039560
2,654055	120,247696	7,528	-0,039510
2,654013	120,027182	8,028	-0,039605
2,654049	120,080060	8,528	-0,039583
2,654021	119,988929	9,029	-0,039622
2,628998	110,111922	9,529	-0,043909
2,603999	97,559494	10,030	-0,049356
2,578953	84,321897	10,530	-0,055102
2,553969	63,409058	11,030	-0,064178
2,528968	48,752745	11,531	-0,070539
2,503963	31,132993	12,031	-0,078186
2,478992	13,352355	12,531	-0,085902
2,453969	-4,580168	13,032	-0,093685