File: Nanoindentation Datenauswertung/data/labview program test/program test-2
Quasi static measurement routine
Tip parameters (shape,radius, material...)
06.07.2022

Piezo position[nm]	MEMS displ.[nm]	Time[ms]	Cap [pf]
eoh
2,456038	-0,258767	0,058	-0,090880
2,466033	-1,478345	0,558	-0,091410
2,476068	5,449849	1,059	-0,088403
2,486115	11,782879	1,559	-0,085654
2,496092	17,582625	2,060	-0,083137
2,506069	23,198985	2,560	-0,080700
2,516095	29,737903	3,060	-0,077862
2,526049	42,092319	3,561	-0,072500
2,536086	40,476716	4,062	-0,073201
2,546081	46,619609	4,563	-0,070535
2,556037	53,029144	5,063	-0,067753
2,566050	58,249478	5,563	-0,065488
2,576079	64,476752	6,063	-0,062785
2,586122	70,246121	6,563	-0,060281
2,596139	76,502646	7,064	-0,057566
2,606059	86,676672	7,564	-0,053150
2,616087	88,574669	8,066	-0,052327
2,626111	94,792942	8,567	-0,049628
2,636090	105,303364	9,067	-0,045066
2,646081	106,644450	9,567	-0,044484
2,656063	113,952918	10,067	-0,041313
2,656064	119,691910	10,567	-0,038822
2,656030	119,273383	11,068	-0,039003
2,656009	119,318386	11,568	-0,038984
2,656081	118,861607	12,068	-0,039182
2,656060	119,082121	12,569	-0,039086
2,656048	119,128249	13,070	-0,039066
2,656035	119,189003	13,570	-0,039040
2,656017	118,922361	14,070	-0,039156
2,656051	118,770476	14,570	-0,039222
2,655956	118,602841	15,071	-0,039294
2,646001	118,853732	15,571	-0,039186
2,636013	111,781529	16,071	-0,042255
2,626033	104,235671	16,571	-0,045530
2,615998	97,125216	17,071	-0,048616
2,606009	90,137394	17,572	-0,051648
2,596023	83,681731	18,072	-0,054450
2,586012	76,159499	18,572	-0,057715
2,576025	69,170552	19,072	-0,060748
2,566046	55,452549	19,573	-0,066702
2,556005	50,933135	20,074	-0,068663
2,545999	47,350905	20,574	-0,070218
2,536065	40,415962	21,075	-0,073228
2,525994	33,442765	21,575	-0,076254
2,516011	26,385189	22,075	-0,079317
2,505969	19,335487	22,575	-0,082376
2,495994	12,231783	23,075	-0,085459
2,485940	1,280332	23,575	-0,090212
2,475990	-2,316523	24,075	-0,091773
2,466004	-12,163153	24,575	-0,096047
2,456020	-20,478561	25,075	-0,099656