File: Nanoindentation Datenauswertung/data/labview program test/program test-5-2
Quasi static measurement routine
Tip parameters (shape,radius, material...)
06.07.2022

Piezo position[nm]	MEMS displ.[nm]	Time[ms]	Cap [pf]
eoh
2,357552	0,182262	0,030	-0,090874
2,361766	-26,902722	0,130	-0,102629
2,365756	-26,872345	0,230	-0,102616
2,369753	-27,231243	0,330	-0,102771
2,373768	-26,902722	0,430	-0,102629
2,377790	-26,979227	0,530	-0,102662
2,381752	-27,269495	0,630	-0,102788
2,385753	-27,322374	0,730	-0,102811
2,389717	-27,482134	0,831	-0,102880
2,393740	-27,940038	0,931	-0,103079
2,397772	-27,893910	1,032	-0,103059
2,401757	-27,916412	1,132	-0,103069
2,405752	-28,442945	1,233	-0,103297
2,409797	-26,727211	1,333	-0,102553
2,413836	-25,401876	1,433	-0,101978
2,417742	-23,374496	1,534	-0,101098
2,421741	-21,918653	1,634	-0,100466
2,425768	-19,830519	1,734	-0,099560
2,429746	-17,856018	1,834	-0,098703
2,433746	-16,019900	1,935	-0,097906
2,437734	-13,710127	2,035	-0,096903
2,441740	-11,157339	2,135	-0,095795
2,445721	-8,398663	2,235	-0,094598
2,449774	-5,746868	2,335	-0,093447
2,453722	-2,919562	2,435	-0,092220
2,457789	-0,327396	2,535	-0,091095
2,461748	2,217517	2,635	-0,089991
2,465741	4,877187	2,735	-0,088836
2,469744	7,605487	2,835	-0,087652
2,473786	9,854506	2,935	-0,086676
2,477723	11,904387	3,036	-0,085787
2,481763	14,418923	3,136	-0,084695
2,485750	16,690443	3,236	-0,083709
2,489760	19,006966	3,336	-0,082704
2,493767	21,583381	3,436	-0,081586
2,497795	23,610761	3,537	-0,080706
2,501770	25,927284	3,638	-0,079701
2,505783	28,244933	3,739	-0,078695
2,509777	30,515328	3,839	-0,077709
2,513776	32,855478	3,939	-0,076694
2,517753	34,547586	4,040	-0,075959
2,521795	37,046371	4,140	-0,074875
2,525773	41,795300	4,240	-0,072814
2,529777	41,337396	4,340	-0,073013
2,533770	43,433405	4,440	-0,072103
2,537715	45,468660	4,540	-0,071220
2,541751	47,632173	4,640	-0,070281
2,545748	50,132083	4,740	-0,069196
2,549722	51,900697	4,840	-0,068428
2,553751	54,445610	4,941	-0,067324
2,557712	56,274977	5,041	-0,066530
2,557768	58,378861	5,141	-0,065617
2,557702	58,043590	5,241	-0,065762
2,557753	57,494555	5,342	-0,066000
2,557729	57,609312	5,442	-0,065951
2,557761	57,494555	5,544	-0,066000
2,557750	57,052401	5,644	-0,066192
2,557726	57,266165	5,744	-0,066100
2,557693	57,037775	5,844	-0,066199
2,557735	57,082778	5,945	-0,066179
2,557706	57,311168	6,045	-0,066080
2,557691	57,068152	6,145	-0,066186
2,557742	57,189660	6,245	-0,066133
2,557720	57,175034	6,346	-0,066139
2,557733	56,854389	6,447	-0,066278
2,557727	56,969146	6,547	-0,066229
2,557741	57,022024	6,647	-0,066206
2,557778	56,587747	6,747	-0,066394
2,557694	56,571996	6,847	-0,066401
2,557750	56,953395	6,948	-0,066235
2,557724	56,945520	7,048	-0,066239
2,557790	56,801510	7,149	-0,066301
2,557739	56,678877	7,249	-0,066354
2,557728	56,351481	7,349	-0,066497
2,557679	56,725005	7,449	-0,066334
2,557743	56,793635	7,549	-0,066305
2,557742	56,282852	7,649	-0,066526
2,557763	56,282852	7,749	-0,066526
2,557737	56,466239	7,850	-0,066447
2,557758	56,412235	7,950	-0,066470
2,557760	56,343606	8,050	-0,066500
2,557722	56,161344	8,150	-0,066579
2,557675	56,389734	8,250	-0,066480
2,557736	56,656376	8,350	-0,066364
2,557719	56,008335	8,450	-0,066646
2,557761	56,084839	8,551	-0,066612
2,557752	55,901453	8,652	-0,066692
2,557691	55,925079	8,752	-0,066682
2,557746	56,092715	8,853	-0,066609
2,557753	56,092715	8,953	-0,066609
2,557702	56,123092	9,053	-0,066596
2,557726	56,031961	9,153	-0,066635
2,557716	56,099465	9,253	-0,066606
2,557724	56,062338	9,353	-0,066622
2,557690	56,084839	9,453	-0,066612
2,557729	55,985833	9,553	-0,066655
2,557680	55,909328	9,653	-0,066688
2,557722	55,703440	9,753	-0,066778
2,557791	55,925079	9,853	-0,066682
2,557671	55,634811	9,953	-0,066808
2,557719	55,695565	10,054	-0,066781
2,553751	55,787820	10,154	-0,066741
2,549749	52,914387	10,255	-0,067988
2,545700	49,934071	10,356	-0,069282
2,541729	47,137142	10,456	-0,070496
2,537714	44,652983	10,556	-0,071574
2,533729	41,627664	10,656	-0,072887
2,529697	38,647348	10,757	-0,074180
2,525745	35,727787	10,858	-0,075447
2,521706	32,809350	10,958	-0,076714
2,517696	30,210433	11,058	-0,077842
2,513710	27,291997	11,159	-0,079108
2,509762	24,631201	11,259	-0,080263
2,505729	21,765643	11,360	-0,081507
2,501707	18,542312	11,460	-0,082906
2,497733	14,624811	11,560	-0,084606
2,493685	11,470109	11,660	-0,085975
2,489732	9,953512	11,760	-0,086633
2,485726	7,163333	11,860	-0,087844
2,481758	4,808558	11,960	-0,088866
2,477764	1,714610	12,060	-0,090209
2,473732	-0,983313	12,160	-0,091380
2,469752	-3,955753	12,260	-0,092670
2,465683	-6,783059	12,361	-0,093897
2,461740	-9,480982	12,461	-0,095068
2,457730	-12,163153	12,561	-0,096232
2,453745	-15,158095	12,661	-0,097532
2,449723	-17,833516	12,761	-0,098693
2,445713	-21,339241	12,862	-0,100214
2,441735	-22,124541	12,962	-0,100555
2,437743	-22,437311	13,062	-0,100691
2,433753	-22,863713	13,163	-0,100876
2,429745	-22,879464	13,263	-0,100883
2,425727	-24,029288	13,363	-0,101382
2,421785	-24,151921	13,464	-0,101435
2,417720	-25,248866	13,564	-0,101911
2,413747	-25,089106	13,664	-0,101842
2,409744	-26,292933	13,764	-0,102364
2,405711	-27,239118	13,864	-0,102775
2,401743	-27,962540	13,964	-0,103089
2,397734	-29,006606	14,064	-0,103542
2,393758	-28,960478	14,165	-0,103522
2,389731	-28,915476	14,265	-0,103502
2,385735	-28,945853	14,365	-0,103516
2,381766	-28,564453	14,465	-0,103350
2,377720	-28,465447	14,565	-0,103307
2,373700	-28,106549	14,666	-0,103151
2,369683	-28,099798	14,766	-0,103148
2,365716	-27,855658	14,866	-0,103042
2,361683	-27,269495	14,967	-0,102788
2,357757	-26,964601	15,067	-0,102656