File: Nanoindentation Datenauswertung/data/labview program test/program test-3-2
Quasi static measurement routine
Tip parameters (shape,radius, material...)
06.07.2022

Piezo position[nm]	MEMS displ.[nm]	Time[ms]	Cap [pf]
eoh
2,457950	0,145134	0,036	-0,091162
2,483034	5,922379	0,536	-0,088654
2,508019	15,700380	1,036	-0,084411
2,533022	29,883038	1,537	-0,078255
2,557904	44,943251	2,037	-0,071719
2,583000	59,620941	2,538	-0,065349
2,608105	74,925295	3,038	-0,058707
2,632971	91,448103	3,539	-0,051536
2,658007	123,274140	4,040	-0,037724
2,657945	122,626098	4,540	-0,038005
2,657965	122,375207	5,040	-0,038114
2,657941	122,230073	5,540	-0,038177
2,657909	122,672226	6,041	-0,037985
2,657935	122,078188	6,541	-0,038243
2,657973	122,032060	7,041	-0,038263
2,657962	122,177194	7,542	-0,038200
2,657964	122,420210	8,042	-0,038094
2,657918	122,207571	8,543	-0,038187
2,658009	122,290827	9,043	-0,038150
2,632933	120,896862	9,543	-0,038755
2,607903	104,586694	10,044	-0,045834
2,582930	86,898311	10,544	-0,053511
2,557947	68,996166	11,045	-0,061280
2,532886	51,154774	11,545	-0,069023
2,507950	15,761134	12,045	-0,084384
2,482828	15,852265	12,545	-0,084345
2,457878	-2,217517	13,046	-0,092187