File: Nanoindentation Datenauswertung/data/labview program test/program test-4-2
Quasi static measurement routine
Tip parameters (shape,radius, material...)
06.07.2022

Piezo position[nm]	MEMS displ.[nm]	Time[ms]	Cap [pf]
eoh
2,539965	0,183387	0,036	-0,071660
2,543896	0,922559	0,136	-0,071339
2,547930	2,736175	0,237	-0,070552
2,551949	5,991008	0,337	-0,069139
2,555923	8,627052	0,437	-0,067995
2,559915	11,584866	0,537	-0,066711
2,563915	14,541556	0,637	-0,065428
2,567960	17,063967	0,737	-0,064333
2,571917	19,190353	0,838	-0,063411
2,575918	21,811771	0,939	-0,062273
2,579902	24,228426	1,040	-0,061224
2,583936	27,108610	1,140	-0,059974
2,587930	29,311501	1,240	-0,059018
2,591886	32,001548	1,340	-0,057851
2,595932	34,204439	1,440	-0,056895
2,599880	37,009244	1,540	-0,055677
2,603885	39,584533	1,640	-0,054560
2,607940	44,081446	1,740	-0,052608
2,611958	44,454970	1,840	-0,052446
2,615937	46,504851	1,940	-0,051556
2,619893	49,652803	2,041	-0,050190
2,623927	52,007578	2,141	-0,049168
2,627960	54,515364	2,241	-0,048080
2,631919	57,472053	2,341	-0,046796
2,635954	59,780701	2,441	-0,045794
2,639925	62,120851	2,541	-0,044779
2,643935	67,197176	2,641	-0,042576
2,647944	69,148050	2,742	-0,041729
2,651948	70,908788	2,842	-0,040965
2,655983	73,598835	2,942	-0,039797
2,659979	76,494771	3,042	-0,038541
2,663912	78,940677	3,142	-0,037479
2,667991	81,547469	3,242	-0,036348
2,671994	84,489532	3,342	-0,035071
2,675950	87,104200	3,442	-0,033936
2,679897	89,671614	3,542	-0,032822
2,683950	92,201901	3,643	-0,031724
2,687953	95,121463	3,743	-0,030457
2,691930	98,230037	3,843	-0,029107
2,695955	100,113407	3,944	-0,028290
2,699929	100,234915	4,045	-0,028237
2,703973	104,639572	4,146	-0,026326
2,707883	104,251422	4,246	-0,026494
2,711862	105,981783	4,346	-0,025743
2,715927	108,031664	4,446	-0,024854
2,719941	110,606954	4,546	-0,023736
2,723923	112,726590	4,646	-0,022816
2,727963	114,806848	4,746	-0,021913
2,731898	114,806848	4,846	-0,021913
2,735965	116,773474	4,946	-0,021060
2,739925	119,089997	5,046	-0,020054
2,739907	121,071249	5,147	-0,019194
2,739887	120,842859	5,247	-0,019293
2,739912	120,347827	5,348	-0,019508
2,739936	120,194817	5,449	-0,019575
2,739910	120,103687	5,550	-0,019614
2,739903	120,004680	5,651	-0,019657
2,739895	119,851671	5,751	-0,019724
2,739934	119,661533	5,851	-0,019806
2,739877	119,814543	5,953	-0,019740
2,739935	119,516399	6,054	-0,019869
2,739888	119,364514	6,154	-0,019935
2,739909	119,318386	6,254	-0,019955
2,739900	119,532150	6,354	-0,019862
2,739928	119,181128	6,454	-0,020015
2,739919	119,478147	6,554	-0,019886
2,739944	119,356639	6,654	-0,019938
2,739886	118,975239	6,754	-0,020104
2,739921	119,166502	6,854	-0,020021
2,739913	119,280134	6,954	-0,019972
2,739928	118,998866	7,054	-0,020094
2,739882	119,174377	7,154	-0,020018
2,739923	118,922361	7,254	-0,020127
2,739885	118,930237	7,354	-0,020124
2,739901	119,021367	7,454	-0,020084
2,739937	118,701847	7,554	-0,020223
2,739879	118,732224	7,654	-0,020209
2,739895	118,975239	7,755	-0,020104
2,739917	118,930237	7,855	-0,020124
2,739945	118,990990	7,956	-0,020097
2,739882	119,089997	8,056	-0,020054
2,739868	118,944862	8,156	-0,020117
2,739930	119,051744	8,256	-0,020071
2,739937	118,906610	8,356	-0,020134
2,739873	118,655719	8,456	-0,020243
2,739900	118,975239	8,556	-0,020104
2,739941	118,770476	8,656	-0,020193
2,739908	118,526336	8,756	-0,020299
2,739926	118,990990	8,856	-0,020097
2,739892	119,005616	8,956	-0,020091
2,739911	118,571339	9,056	-0,020279
2,739867	118,609591	9,157	-0,020263
2,739907	118,457706	9,257	-0,020329
2,739881	118,876233	9,357	-0,020147
2,739906	118,837981	9,457	-0,020164
2,739924	119,005616	9,557	-0,020091
2,739938	118,823355	9,657	-0,020170
2,739891	118,754725	9,757	-0,020200
2,739883	119,013492	9,857	-0,020087
2,739941	118,770476	9,957	-0,020193
2,739990	118,488083	10,057	-0,020315
2,735890	117,892920	10,158	-0,020574
2,731960	115,164621	10,259	-0,021758
2,727883	112,306938	10,359	-0,022998
2,723907	110,295309	10,460	-0,023871
2,719926	106,888591	10,560	-0,025350
2,715908	104,395431	10,660	-0,026432
2,711921	101,721135	10,760	-0,027592
2,707923	98,649689	10,860	-0,028925
2,703916	95,830258	10,961	-0,030149
2,699901	92,621553	11,061	-0,031542
2,695899	90,266777	11,161	-0,032563
2,691894	87,835496	11,262	-0,033619
2,687839	81,638600	11,362	-0,036308
2,683903	81,166070	11,462	-0,036513
2,679864	78,659409	11,563	-0,037601
2,675884	76,022240	11,664	-0,038746
2,671853	72,981171	11,764	-0,040065
2,667872	70,291124	11,865	-0,041233
2,663913	67,379437	11,966	-0,042497
2,659898	64,300115	12,066	-0,043833
2,655933	60,444493	12,166	-0,045506
2,651931	58,774887	12,267	-0,046231
2,647879	55,673063	12,367	-0,047577
2,643894	52,693872	12,468	-0,048870
2,639922	50,147834	12,568	-0,049975
2,635913	47,671551	12,669	-0,051050
2,631937	44,638357	12,769	-0,052366
2,627911	42,229578	12,870	-0,053412
2,623890	38,937617	12,971	-0,054840
2,619940	35,979803	13,072	-0,056124
2,615898	33,374136	13,172	-0,057255
2,611928	30,333066	13,272	-0,058575
2,607876	27,688022	13,372	-0,059723
2,603923	24,769585	13,472	-0,060989
2,599917	21,888276	13,572	-0,062240
2,595878	19,107098	13,673	-0,063447
2,591887	16,522807	13,773	-0,064568
2,587875	13,375981	13,873	-0,065934
2,583959	10,601553	13,973	-0,067138
2,579916	7,530107	14,073	-0,068471
2,575901	4,679174	14,173	-0,069708
2,571888	2,172514	14,273	-0,070796
2,567927	-1,036191	14,373	-0,072189
2,563889	-3,855622	14,473	-0,073413
2,559856	-6,583921	14,573	-0,074597
2,555869	-9,632867	14,674	-0,075920
2,551880	-14,030773	14,774	-0,077829
2,547905	-16,064903	14,875	-0,078711
2,543854	-18,069781	14,975	-0,079582
2,539906	-20,699075	15,075	-0,080723