File: Nanoindentation Datenauswertung/data/labview program test/program test-1
Quasi static measurement routine
Tip parameters (shape,radius, material...)
06.07.2022

Piezo position[nm]	MEMS displ.[nm]	Time[ms]	Cap [pf]
eoh
2,455983	0,099006	0,029	-0,090437
2,460962	-0,030377	0,529	-0,090493
2,466005	3,627232	1,029	-0,088906
2,471011	7,292717	1,530	-0,087315
2,475954	10,936825	2,030	-0,085733
2,480962	13,900265	2,530	-0,084447
2,486025	17,512871	3,030	-0,082879
2,491013	20,394180	3,531	-0,081629
2,495985	23,481378	4,031	-0,080289
2,500989	26,955600	4,532	-0,078781
2,505955	31,117242	5,032	-0,076975
2,510946	33,220001	5,532	-0,076063
2,515970	35,842544	6,032	-0,074924
2,520973	38,700227	6,533	-0,073684
2,525961	42,495095	7,033	-0,072037
2,530946	44,881372	7,534	-0,071001
2,536021	47,731180	8,034	-0,069765
2,540986	50,521358	8,535	-0,068554
2,545990	53,226031	9,035	-0,067380
2,550930	56,198472	9,536	-0,066090
2,555955	59,422928	10,036	-0,064690
2,561003	62,547253	10,536	-0,063334
2,565995	68,712648	11,036	-0,060659
2,570911	68,446006	11,536	-0,060774
2,575954	71,402695	12,036	-0,059491
2,581002	74,055615	12,536	-0,058340
2,585966	80,190632	13,037	-0,055677
2,590945	79,968993	13,537	-0,055773
2,595905	82,682667	14,037	-0,054596
2,601009	85,556101	14,537	-0,053349
2,605994	91,378348	15,037	-0,050822
2,610971	90,616674	15,537	-0,051152
2,615940	93,169463	16,038	-0,050044
2,620968	96,073274	16,538	-0,048784
2,626010	99,288729	17,039	-0,047389
2,630949	101,941649	17,539	-0,046237
2,635982	104,921965	18,039	-0,044944
2,641033	107,626638	18,539	-0,043770
2,645976	113,830285	19,039	-0,041078
2,650943	113,258749	19,540	-0,041326
2,655969	115,888042	20,040	-0,040185
2,655946	118,890859	20,540	-0,038881
2,655948	118,571339	21,040	-0,039020
2,655952	118,426204	21,540	-0,039083
2,655941	117,854668	22,040	-0,039331
2,655995	117,808540	22,541	-0,039351
2,655961	117,519396	23,041	-0,039477
2,656007	117,739910	23,542	-0,039381
2,656027	117,595901	24,042	-0,039443
2,655958	117,519396	24,543	-0,039477
2,655932	117,412514	25,044	-0,039523
2,650953	117,694907	25,544	-0,039400
2,645978	113,898915	26,045	-0,041048
2,640924	110,560826	26,545	-0,042497
2,635926	103,221981	27,045	-0,045682
2,630974	103,054345	27,545	-0,045754
2,625952	99,358484	28,046	-0,047358
2,620908	96,347791	28,546	-0,048665
2,615980	92,369537	29,046	-0,050392
2,610942	85,632605	29,547	-0,053315
2,605964	85,251206	30,047	-0,053481
2,600966	81,715105	30,548	-0,055016
2,595937	77,492710	31,048	-0,056848
2,590956	72,836037	31,548	-0,058869
2,585971	71,341941	32,048	-0,059518
2,580949	65,130418	32,548	-0,062213
2,575973	64,033473	33,048	-0,062689
2,570969	59,841455	33,548	-0,064509
2,565966	56,686753	34,048	-0,065878
2,560956	53,439795	34,548	-0,067287
2,555952	49,590924	35,048	-0,068958
2,550988	46,008695	35,548	-0,070512
2,545993	42,716734	36,048	-0,071941
2,540955	38,578719	36,549	-0,073737
2,535937	35,354263	37,049	-0,075136
2,530957	31,810286	37,549	-0,076674
2,525953	28,328188	38,050	-0,078186
2,520934	24,685205	38,550	-0,079767
2,515950	17,726635	39,051	-0,082787
2,510961	17,605127	39,552	-0,082839
2,505893	14,366044	40,052	-0,084245
2,500938	10,600428	40,552	-0,085879
2,495922	3,406718	41,052	-0,089001
2,490981	3,618232	41,552	-0,088910
2,485979	-0,100131	42,053	-0,090523
2,480924	-3,810619	42,554	-0,092134
2,475946	-7,186960	43,054	-0,093599
2,471002	-10,280908	43,554	-0,094942
2,465949	-14,008272	44,054	-0,096560
2,460974	-17,772762	44,555	-0,098193
2,455979	-20,036407	45,055	-0,099176