File: Nanoindentation Datenauswertung/data/labview program test/program test-6-3
Quasi static measurement routine
Tip parameters (shape,radius, material...)
06.07.2022

Piezo position[nm]	MEMS displ.[nm]	Time[ms]	Cap [pf]
eoh
2,357986	-27,222242	0,203	-0,102454
2,361961	-27,314498	0,304	-0,102494
2,365913	-27,177239	0,404	-0,102434
2,370008	-27,284121	0,505	-0,102480
2,373934	-26,948850	0,605	-0,102335
2,377928	-27,367377	0,705	-0,102517
2,381978	-27,649770	0,806	-0,102639
2,385959	-28,114424	0,906	-0,102841
2,390013	-28,464322	1,007	-0,102993
2,393995	-28,403568	1,107	-0,102966
2,397971	-29,174242	1,207	-0,103301
2,401974	-29,059485	1,307	-0,103251
2,405969	-29,578143	1,407	-0,103476
2,410001	-28,655584	1,507	-0,103076
2,413998	-26,910597	1,608	-0,102318
2,417985	-25,812527	1,709	-0,101842
2,421922	-23,282240	1,810	-0,100744
2,425990	-21,323490	1,911	-0,099894
2,429941	-19,669634	2,012	-0,099176
2,433999	-17,635504	2,112	-0,098293
2,437984	-15,363983	2,213	-0,097307
2,441942	-13,229722	2,313	-0,096381
2,445968	-10,280908	2,413	-0,095101
2,449963	-8,039765	2,514	-0,094128
2,453981	-4,610545	2,614	-0,092640
2,458019	-2,377277	2,714	-0,091671
2,461922	0,236265	2,815	-0,090537
2,465976	3,178328	2,915	-0,089260
2,469940	5,076325	3,015	-0,088436
2,473948	10,419292	3,115	-0,086117
2,477997	10,708435	3,215	-0,085992
2,481968	16,454178	3,315	-0,083498
2,485961	15,486616	3,415	-0,083918
2,489940	18,078782	3,515	-0,082793
2,494014	21,126602	3,615	-0,081470
2,497960	22,734330	3,715	-0,080772
2,501917	28,313562	3,815	-0,078351
2,506003	27,421380	3,915	-0,078738
2,510022	30,211559	4,015	-0,077527
2,513993	35,355388	4,115	-0,075295
2,517963	34,868232	4,215	-0,075506
2,521955	38,715978	4,316	-0,073836
2,525952	42,382587	4,416	-0,072245
2,529939	41,856054	4,517	-0,072474
2,533975	44,424593	4,617	-0,071359
2,537988	47,130391	4,717	-0,070185
2,541944	48,929381	4,817	-0,069404
2,545962	51,367413	4,917	-0,068346
2,550032	53,669310	5,017	-0,067347
2,554017	55,376044	5,117	-0,066606
2,557977	58,447491	5,217	-0,065273
2,557909	60,216104	5,318	-0,064505
2,557915	59,721072	5,419	-0,064720
2,558008	60,216104	5,519	-0,064505
2,557964	59,149536	5,620	-0,064968
2,557954	59,476932	5,720	-0,064826
2,557986	59,697446	5,820	-0,064730
2,557957	58,699507	5,920	-0,065164
2,557953	59,400427	6,020	-0,064859
2,558003	58,669130	6,120	-0,065177
2,557964	59,026903	6,220	-0,065021
2,557955	58,966149	6,321	-0,065048
2,557955	58,364235	6,422	-0,065309
2,557917	59,111283	6,523	-0,064985
2,557932	58,843516	6,623	-0,065101
2,557917	58,516120	6,723	-0,065243
2,557890	58,988650	6,823	-0,065038
2,557951	58,394612	6,924	-0,065296
2,557984	58,196600	7,024	-0,065382
2,557968	58,477868	7,124	-0,065260
2,557912	57,937833	7,226	-0,065494
2,557945	58,562248	7,328	-0,065223
2,557967	58,386737	7,428	-0,065299
2,558013	57,724069	7,528	-0,065587
2,557929	58,379986	7,628	-0,065302
2,557994	57,776948	7,728	-0,065564
2,557972	57,701568	7,828	-0,065597
2,557954	58,089718	7,928	-0,065428
2,557952	57,677941	8,029	-0,065607
2,557930	58,097593	8,129	-0,065425
2,557977	57,526057	8,229	-0,065673
2,558010	57,571060	8,330	-0,065653
2,557907	58,105469	8,430	-0,065421
2,558022	57,716194	8,530	-0,065590
2,558000	57,708318	8,631	-0,065594
2,557942	58,043590	8,731	-0,065448
2,557934	57,602562	8,831	-0,065640
2,557972	57,830951	8,931	-0,065541
2,557998	57,670066	9,031	-0,065610
2,557935	57,746571	9,131	-0,065577
2,557980	57,868079	9,231	-0,065524
2,557959	57,510306	9,331	-0,065680
2,557962	57,556434	9,431	-0,065660
2,557973	57,227913	9,531	-0,065802
2,557940	57,227913	9,631	-0,065802
2,557970	57,609312	9,731	-0,065637
2,557946	57,540683	9,831	-0,065667
2,557968	57,449552	9,932	-0,065706
2,557955	57,762322	10,032	-0,065570
2,557971	57,373047	10,133	-0,065739
2,557948	57,495680	10,233	-0,065686
2,553989	56,229974	10,334	-0,066235
2,549931	53,798693	10,434	-0,067291
2,545941	51,809566	10,535	-0,068154
2,542012	48,899005	10,635	-0,069417
2,537976	45,712801	10,736	-0,070800
2,533951	42,687482	10,836	-0,072113
2,529945	40,286578	10,937	-0,073155
2,525976	37,489649	11,037	-0,074369
2,521981	34,700596	11,138	-0,075579
2,517954	30,531079	11,238	-0,077389
2,513986	28,778217	11,338	-0,078149
2,509995	25,783275	11,439	-0,079449
2,506012	23,099978	11,540	-0,080614
2,502001	20,456059	11,640	-0,081761
2,497937	17,582625	11,740	-0,083008
2,493961	14,496553	11,840	-0,084348
2,489961	11,744627	11,941	-0,085542
2,485941	8,848691	12,042	-0,086799
2,482015	5,831248	12,143	-0,088108
2,478008	3,010693	12,244	-0,089333
2,473972	0,595163	12,344	-0,090381
2,470000	-2,667546	12,444	-0,091797
2,465967	-5,288963	12,545	-0,092935
2,461948	-7,932883	12,645	-0,094082
2,457940	-10,935700	12,745	-0,095385
2,453910	-13,550367	12,845	-0,096520
2,449932	-16,773699	12,945	-0,097919
2,445880	-19,091347	13,046	-0,098925
2,442001	-21,674512	13,146	-0,100046
2,438011	-23,502754	13,246	-0,100839
2,433917	-23,443125	13,346	-0,100813
2,429978	-23,960658	13,446	-0,101038
2,425974	-24,852841	13,546	-0,101425
2,421922	-25,545885	13,646	-0,101726
2,417930	-26,483070	13,746	-0,102133
2,413956	-27,078233	13,846	-0,102391
2,409908	-27,847782	13,946	-0,102725
2,405937	-28,617332	14,046	-0,103059
2,401908	-29,386881	14,146	-0,103393
2,397951	-30,430948	14,246	-0,103846
2,393962	-30,339817	14,346	-0,103807
2,389959	-30,248686	14,446	-0,103767
2,385926	-30,256561	14,546	-0,103771
2,381984	-29,653523	14,646	-0,103509
2,377913	-29,348628	14,746	-0,103376
2,373960	-29,508389	14,847	-0,103446
2,369918	-28,998731	14,947	-0,103225
2,366028	-28,526201	15,047	-0,103020
2,361951	-28,030044	15,148	-0,102804
2,357970	-28,084047	15,248	-0,102828