File: Nanoindentation Datenauswertung/data/labview program test/program test-6-4
Quasi static measurement routine
Tip parameters (shape,radius, material...)
06.07.2022

Piezo position[nm]	MEMS displ.[nm]	Time[ms]	Cap [pf]
eoh
2,362025	-27,703773	0,220	-0,102669
2,365988	-28,114424	0,320	-0,102847
2,370042	-27,841032	0,420	-0,102729
2,374042	-27,932163	0,521	-0,102768
2,378053	-27,916412	0,621	-0,102761
2,381969	-28,282060	0,721	-0,102920
2,385983	-28,275310	0,821	-0,102917
2,389975	-28,724213	0,921	-0,103112
2,393998	-29,006606	1,022	-0,103234
2,397970	-29,242872	1,122	-0,103337
2,401971	-29,669274	1,222	-0,103522
2,406037	-30,187932	1,322	-0,103747
2,410001	-27,641894	1,423	-0,102642
2,413976	-27,544013	1,523	-0,102600
2,418020	-26,193926	1,623	-0,102014
2,421992	-24,236301	1,723	-0,101164
2,425993	-21,904027	1,823	-0,100152
2,430011	-20,165791	1,924	-0,099397
2,433979	-17,689507	2,024	-0,098323
2,438030	-16,043527	2,124	-0,097608
2,441979	-11,187716	2,224	-0,095501
2,445975	-10,777065	2,324	-0,095323
2,450003	-6,478165	2,424	-0,093457
2,453985	-4,694925	2,524	-0,092683
2,458009	-1,867620	2,624	-0,091456
2,462024	0,076505	2,725	-0,090612
2,466020	2,241143	2,825	-0,089673
2,470059	4,687050	2,925	-0,088611
2,474007	7,506480	3,025	-0,087388
2,478080	9,937761	3,125	-0,086333
2,482015	12,056272	3,225	-0,085413
2,486030	14,723817	3,325	-0,084255
2,489998	17,215852	3,426	-0,083174
2,493949	19,372615	3,526	-0,082238
2,498030	23,800898	3,626	-0,080316
2,502060	24,768460	3,727	-0,079896
2,506018	26,819466	3,827	-0,079006
2,510022	29,501638	3,927	-0,077842
2,514023	31,361382	4,028	-0,077035
2,518033	33,899545	4,129	-0,075933
2,522073	36,551339	4,229	-0,074782
2,525985	38,883614	4,329	-0,073770
2,530001	40,468840	4,429	-0,073082
2,534026	42,678481	4,530	-0,072123
2,538073	45,285273	4,630	-0,070992
2,542046	47,845937	4,731	-0,069880
2,545997	50,101707	4,831	-0,068901
2,549986	52,548738	4,931	-0,067839
2,554017	55,467175	5,031	-0,066573
2,558027	57,936708	5,131	-0,065501
2,561969	60,406241	5,231	-0,064429
2,562005	62,639509	5,331	-0,063460
2,561987	62,189480	5,432	-0,063655
2,561978	62,235608	5,532	-0,063635
2,561999	62,159103	5,632	-0,063668
2,562045	62,074723	5,733	-0,063705
2,561997	62,013969	5,834	-0,063731
2,561967	61,900337	5,935	-0,063781
2,561973	61,785579	6,035	-0,063831
2,562020	61,953215	6,135	-0,063758
2,562036	61,808081	6,236	-0,063821
2,561991	61,563940	6,337	-0,063927
2,561939	61,670822	6,438	-0,063880
2,562034	61,549314	6,538	-0,063933
2,561994	61,625819	6,638	-0,063900
2,561959	61,975716	6,739	-0,063748
2,562025	61,266921	6,840	-0,064056
2,561993	61,244420	6,940	-0,064065
2,561970	61,526813	7,040	-0,063943
2,561996	61,206167	7,140	-0,064082
2,561964	61,464934	7,240	-0,063970
2,562014	61,450308	7,340	-0,063976
2,561997	61,518937	7,440	-0,063946
2,562015	61,480685	7,541	-0,063963
2,561964	61,632569	7,641	-0,063897
2,561981	61,511062	7,741	-0,063950
2,561965	61,571816	7,841	-0,063923
2,561960	61,404180	7,943	-0,063996
2,561994	61,244420	8,043	-0,064065
2,561970	61,107161	8,143	-0,064125
2,561994	61,396304	8,243	-0,064000
2,561974	61,412055	8,343	-0,063993
2,561965	61,228669	8,444	-0,064072
2,561951	61,016030	8,544	-0,064165
2,561980	61,076784	8,644	-0,064138
2,562004	61,121787	8,744	-0,064119
2,562004	61,115036	8,844	-0,064122
2,562021	61,373803	8,945	-0,064009
2,561962	61,099285	9,045	-0,064128
2,561958	61,282672	9,146	-0,064049
2,561993	60,969902	9,246	-0,064185
2,561987	60,818017	9,346	-0,064250
2,562030	61,076784	9,447	-0,064138
2,561983	60,939525	9,548	-0,064198
2,561947	61,030656	9,649	-0,064158
2,562034	60,923774	9,749	-0,064205
2,561982	60,870896	9,849	-0,064228
2,561927	60,909148	9,949	-0,064211
2,562047	61,046407	10,049	-0,064151
2,561947	60,923774	10,149	-0,064205
2,562004	60,901273	10,249	-0,064214
2,558010	60,695385	10,349	-0,064304
2,554051	58,005337	10,449	-0,065471
2,550007	55,596558	10,549	-0,066517
2,545991	52,259595	10,649	-0,067965
2,542003	49,202774	10,749	-0,069292
2,537951	46,688238	10,850	-0,070383
2,533931	43,883434	10,950	-0,071600
2,529990	40,986373	11,051	-0,072857
2,526023	38,182694	11,152	-0,074074
2,521991	35,224879	11,253	-0,075358
2,517982	32,336820	11,353	-0,076611
2,514018	29,562392	11,453	-0,077815
2,509993	26,506696	11,554	-0,079142
2,505973	23,671515	11,654	-0,080372
2,501967	20,935340	11,755	-0,081560
2,497992	18,001152	11,855	-0,082833
2,493971	15,295354	11,955	-0,084007
2,489960	12,231783	12,055	-0,085337
2,486004	9,594614	12,155	-0,086481
2,481999	6,729056	12,255	-0,087725
2,477997	3,955753	12,355	-0,088929
2,473950	1,203827	12,455	-0,090123
2,470029	-1,928373	12,555	-0,091482
2,465959	-4,580168	12,656	-0,092633
2,461929	-7,674116	12,756	-0,093976
2,457989	-10,670183	12,857	-0,095276
2,453949	-12,841572	12,957	-0,096219
2,449972	-16,027776	13,057	-0,097602
2,445935	-18,770701	13,157	-0,098792
2,442016	-21,339241	13,257	-0,099907
2,437954	-23,229362	13,357	-0,100727
2,433979	-24,129419	13,457	-0,101118
2,429964	-23,687266	13,557	-0,100926
2,425989	-24,396061	13,657	-0,101233
2,421989	-25,416502	13,757	-0,101676
2,417998	-26,346936	13,858	-0,102080
2,414005	-27,322374	13,958	-0,102503
2,409975	-27,863533	14,058	-0,102738
2,405996	-29,029108	14,158	-0,103244
2,401982	-30,005670	14,258	-0,103668
2,398000	-30,553580	14,359	-0,103906
2,394028	-30,050673	14,459	-0,103688
2,389974	-30,226184	14,559	-0,103764
2,385937	-30,271187	14,660	-0,103783
2,381999	-29,616395	14,760	-0,103499
2,378034	-29,349753	14,860	-0,103383
2,374002	-29,357629	14,960	-0,103387
2,369948	-29,174242	15,060	-0,103307
2,365963	-28,572329	15,160	-0,103046
2,362027	-28,275310	15,260	-0,102917