File: Nanoindentation Datenauswertung/data/labview program test/program test-10
Quasi static measurement routine
Tip parameters (shape,radius, material...)
06.07.2022

Piezo position[nm]	MEMS displ.[nm]	Time[ms]	Cap [pf]
eoh
2,255989	-23,038099	0,189	-0,100737
2,281016	-23,092103	0,689	-0,100760
2,306030	-24,037163	1,190	-0,101170
2,331051	-25,195988	1,691	-0,101673
2,356063	-26,765463	2,192	-0,102354
2,381063	-27,619393	2,692	-0,102725
2,406070	-32,229938	3,192	-0,104726
2,431059	-28,990855	3,692	-0,103320
2,456046	-16,476680	4,192	-0,097889
2,481031	-0,113632	4,694	-0,090788
2,506100	15,684629	5,194	-0,083931
2,531070	29,867287	5,694	-0,077776
2,556146	44,546101	6,194	-0,071405
2,581083	58,851391	6,695	-0,065197
2,606152	73,179183	7,196	-0,058979
2,631137	96,676312	7,697	-0,048781
2,656095	102,185790	8,197	-0,046390
2,681168	117,939048	8,697	-0,039553
2,706068	133,204025	9,197	-0,032928
2,731057	148,973034	9,698	-0,026084
2,756079	165,320331	10,198	-0,018989
2,755968	181,766633	10,699	-0,011852
2,755947	181,454988	11,199	-0,011987
2,755970	181,119717	11,699	-0,012132
2,755970	180,990333	12,201	-0,012188
2,755998	180,845199	12,701	-0,012251
2,756016	180,570682	13,202	-0,012371
2,755973	180,958831	13,703	-0,012202
2,756022	180,516678	14,204	-0,012394
2,755973	180,562806	14,704	-0,012374
2,755995	180,227535	15,204	-0,012520
2,730963	180,463800	15,705	-0,012417
2,705925	162,874424	16,205	-0,020051
2,680963	144,972278	16,705	-0,027820
2,655936	127,268145	17,206	-0,035504
2,630950	109,380625	17,706	-0,043267
2,605954	91,599987	18,206	-0,050984
2,580958	73,842976	18,706	-0,058690
2,555904	56,276102	19,206	-0,066314
2,530902	38,342454	19,706	-0,074098
2,505966	20,470685	20,206	-0,081854
2,480921	2,782303	20,707	-0,089531
2,455895	-15,051213	21,208	-0,097271
2,430944	-24,059665	21,708	-0,101180
2,405940	-25,287118	22,209	-0,101713
2,380938	-30,309440	22,711	-0,103893
2,355918	-32,580960	23,211	-0,104878
2,330873	-31,460388	23,711	-0,104392
2,305953	-29,013357	24,212	-0,103330
2,280928	-25,820403	24,712	-0,101944
2,255971	-24,258803	25,213	-0,101267