File: Nanoindentation Datenauswertung/data/labview program test/program test-7
Quasi static measurement routine
Tip parameters (shape,radius, material...)
06.07.2022

Piezo position[nm]	MEMS displ.[nm]	Time[ms]	Cap [pf]
eoh
2,361872	-31,819286	0,208	-0,104147
2,369856	-31,536893	0,609	-0,104025
2,377852	-31,445763	1,009	-0,103985
2,385826	-32,177059	1,410	-0,104303
2,393880	-32,756471	1,811	-0,104554
2,401821	-32,146682	2,212	-0,104290
2,409845	-29,935916	2,613	-0,103330
2,417835	-26,453818	3,014	-0,101819
2,425905	-22,581320	3,415	-0,100138
2,433853	-18,664945	3,815	-0,098438
2,441830	-13,360230	4,216	-0,096136
2,449895	-8,010513	4,617	-0,093814
2,457907	-2,796929	5,017	-0,091552
2,465865	2,637169	5,418	-0,089193
2,473865	7,887880	5,818	-0,086915
2,481895	12,681812	6,218	-0,084834
2,489865	17,574750	6,618	-0,082710
2,497866	23,045975	7,019	-0,080336
2,505853	30,271187	7,419	-0,077200
2,513876	32,322194	7,819	-0,076310
2,521892	36,810106	8,220	-0,074362
2,529924	41,749172	8,621	-0,072219
2,537928	48,989010	9,021	-0,069077
2,545929	52,144837	9,422	-0,067707
2,553885	59,156286	9,822	-0,064664
2,561887	64,003096	10,223	-0,062561
2,561821	64,071726	10,623	-0,062531
2,561847	63,591320	11,023	-0,062739
2,561869	63,454061	11,424	-0,062799
2,561842	63,110914	11,825	-0,062948
2,561849	63,110914	12,225	-0,062948
2,561808	63,187419	12,626	-0,062915
2,561829	62,860023	13,026	-0,063057
2,561847	63,134541	13,427	-0,062938
2,561854	62,860023	13,827	-0,063057
2,561857	62,920777	14,228	-0,063030
2,561869	62,738515	14,628	-0,063109
2,561857	62,997282	15,029	-0,062997
2,561831	62,615882	15,429	-0,063163
2,553899	59,948337	15,650	-0,064320
2,545897	54,118214	16,052	-0,066851
2,537858	48,722368	16,453	-0,069192
2,529845	42,541223	16,853	-0,071875
2,521827	36,932739	17,254	-0,074309
2,513832	31,201622	17,654	-0,076796
2,505857	25,577387	18,054	-0,079237
2,497831	19,739388	18,455	-0,081771
2,489788	13,992521	18,857	-0,084265
2,481831	7,567234	19,257	-0,087054
2,473815	3,025319	19,658	-0,089025
2,465848	-2,492034	20,058	-0,091419
2,457874	-8,863317	20,458	-0,094185
2,449819	-14,107278	20,858	-0,096460
2,441842	-21,126602	21,259	-0,099507
2,433840	-25,005850	21,659	-0,101190
2,425863	-26,781214	22,059	-0,101961
2,417880	-28,495824	22,459	-0,102705
2,409865	-30,880976	22,859	-0,103740
2,401846	-31,635900	23,260	-0,104068
2,393846	-33,632903	23,661	-0,104935
2,385905	-33,449516	24,061	-0,104855
2,377815	-33,274005	24,462	-0,104779
2,369836	-32,245689	24,864	-0,104333
2,361858	-32,459452	25,265	-0,104425
2,361878	-31,758533	25,665	-0,104121
2,361860	-31,643775	26,065	-0,104071
2,361869	-31,581896	26,465	-0,104044
2,361858	-31,484015	26,866	-0,104002
2,361863	-31,506516	27,266	-0,104012
2,361905	-31,787784	27,667	-0,104134
2,361824	-31,773158	28,068	-0,104127
2,361901	-31,567270	28,469	-0,104038
2,361857	-31,651651	28,869	-0,104075
2,361873	-31,674152	29,269	-0,104084
2,361885	-31,581896	29,669	-0,104044
2,361877	-31,613398	30,069	-0,104058
2,361860	-31,581896	30,471	-0,104044
2,369873	-31,720280	30,693	-0,104104
2,377872	-31,498641	31,093	-0,104008
2,385863	-32,245689	31,493	-0,104333
2,393890	-32,024050	31,894	-0,104236
2,401847	-32,130931	32,294	-0,104283
2,409840	-29,989919	32,694	-0,103354
2,417860	-26,964601	33,095	-0,102041
2,425896	-22,550943	33,496	-0,100125
2,433857	-18,923711	33,897	-0,098551
2,441889	-13,650499	34,297	-0,096262
2,449899	-8,543797	34,697	-0,094046
2,457886	-3,551852	35,097	-0,091879
2,465918	2,453782	35,498	-0,089273
2,473825	6,623299	35,898	-0,087463
2,481863	11,484735	36,299	-0,085354
2,489855	15,935520	36,700	-0,083422
2,497872	20,721576	37,100	-0,081345
2,505877	25,347872	37,501	-0,079337
2,513860	30,180057	37,903	-0,077240
2,521877	36,246445	38,304	-0,074607
2,529852	40,103192	38,705	-0,072933
2,537862	46,519477	39,106	-0,070148
2,545836	50,848754	39,506	-0,068270
2,553835	56,129842	39,908	-0,065978
2,561945	61,160039	40,308	-0,063794
2,561850	63,538441	40,708	-0,062762
2,561827	63,599195	41,108	-0,062736
2,561841	63,385432	41,508	-0,062829
2,561849	63,659949	41,910	-0,062709
2,561848	63,514815	42,311	-0,062772
2,561854	63,774707	42,712	-0,062660
2,561870	63,203170	43,112	-0,062908
2,561845	63,599195	43,514	-0,062736
2,561878	63,538441	43,914	-0,062762
2,561827	63,134541	44,315	-0,062938
2,561843	63,271799	44,715	-0,062878
2,561885	63,423684	45,115	-0,062812
2,561898	63,104164	45,515	-0,062951
2,553835	60,390490	45,737	-0,064128
2,545862	53,623182	46,138	-0,067065
2,537846	49,126269	46,538	-0,069017
2,529810	43,502034	46,938	-0,071458
2,521849	37,579655	47,339	-0,074028
2,513864	32,443701	47,739	-0,076257
2,505885	26,102796	48,141	-0,079009
2,497881	19,784391	48,541	-0,081751
2,489850	14,929706	48,941	-0,083858
2,481843	8,885819	49,342	-0,086481
2,473883	2,195015	49,743	-0,089385
2,465867	-2,096009	50,143	-0,091248
2,457886	-8,124145	50,544	-0,093864
2,449823	-13,360230	50,944	-0,096136
2,441900	-19,586379	51,344	-0,098838
2,433868	-24,739208	51,744	-0,101075
2,425838	-27,306623	52,144	-0,102189
2,417844	-29,296875	52,545	-0,103053
2,409835	-30,408446	52,945	-0,103535
2,401806	-31,993673	53,346	-0,104223
2,393861	-33,297631	53,746	-0,104789
2,385883	-33,580024	54,146	-0,104912
2,377834	-33,358385	54,547	-0,104815
2,369813	-32,421200	54,948	-0,104409
2,361851	-32,215312	55,348	-0,104319
2,361806	-31,734906	55,748	-0,104111
2,361910	-31,781034	56,148	-0,104131
2,361842	-31,781034	56,548	-0,104131
2,361891	-31,887916	56,948	-0,104177
2,361838	-31,795660	57,348	-0,104137
2,361867	-31,720280	57,748	-0,104104
2,361871	-31,795660	58,149	-0,104137
2,361879	-31,567270	58,549	-0,104038
2,361878	-31,552644	58,949	-0,104032
2,361866	-31,581896	59,350	-0,104044
2,361892	-31,712405	59,751	-0,104101
2,361884	-31,452513	60,153	-0,103988
2,361878	-31,635900	60,554	-0,104068
2,369893	-31,468264	60,775	-0,103995
2,377891	-31,559395	61,175	-0,104035
2,385901	-32,047676	61,575	-0,104247
2,393882	-32,100554	61,975	-0,104270
2,401871	-32,162433	62,376	-0,104296
2,409937	-30,264437	62,776	-0,103473
2,417861	-26,682208	63,177	-0,101918
2,425902	-22,917717	63,577	-0,100284
2,433883	-18,939462	63,977	-0,098558
2,441849	-14,022897	64,377	-0,096424
2,449863	-8,604551	64,778	-0,094072
2,457867	-3,376341	65,180	-0,091803
2,465867	1,387214	65,581	-0,089736
2,473869	6,104641	65,981	-0,087688
2,481875	10,997579	66,382	-0,085565
2,489889	15,592373	66,783	-0,083571
2,497872	20,280548	67,184	-0,081536
2,505872	27,672271	67,587	-0,078328
2,513843	30,630085	67,987	-0,077044
2,521838	35,156250	68,388	-0,075080
2,529847	40,719731	68,788	-0,072666
2,537862	45,749928	69,189	-0,070482
2,545874	51,961451	69,589	-0,067787
2,553871	56,472989	69,989	-0,065829
2,561870	61,922838	70,390	-0,063463
2,561850	64,041349	70,790	-0,062544
2,561849	64,315866	71,191	-0,062425
2,561818	63,881588	71,591	-0,062613
2,561877	63,934467	71,991	-0,062590
2,561847	64,247237	72,393	-0,062455
2,561871	63,758956	72,793	-0,062667
2,561887	63,683576	73,193	-0,062699
2,561856	63,728579	73,594	-0,062680
2,561812	63,653199	73,994	-0,062712
2,561769	63,492314	74,394	-0,062782
2,561810	63,843336	74,794	-0,062630
2,561865	63,851211	75,194	-0,062626
2,561854	63,751080	75,595	-0,062670
2,553845	60,939525	75,817	-0,063890
2,545838	54,903514	76,219	-0,066510
2,537802	49,469416	76,619	-0,068868
2,529816	43,631417	77,020	-0,071402
2,521798	37,892425	77,421	-0,073893
2,513804	31,628024	77,822	-0,076611
2,505818	26,453818	78,224	-0,078857
2,497817	20,836334	78,624	-0,081295
2,489828	15,585622	79,026	-0,083574
2,481819	9,800502	79,427	-0,086084
2,473826	3,940002	79,828	-0,088628
2,465805	-2,255769	80,228	-0,091317
2,457824	-7,461478	80,629	-0,093576
2,449820	-12,994582	81,030	-0,095978
2,441784	-18,580564	81,430	-0,098402
2,433802	-24,174422	81,830	-0,100830
2,425846	-28,610581	82,231	-0,102755
2,417858	-28,984105	82,632	-0,102917
2,409790	-31,529018	83,032	-0,104021
2,401812	-31,651651	83,432	-0,104075
2,393820	-33,594650	83,832	-0,104918
2,385812	-33,556398	84,233	-0,104901
2,377758	-33,281880	84,634	-0,104782
2,369872	-32,427950	85,034	-0,104412
2,361800	-32,199561	85,434	-0,104313