File: Nanoindentation Datenauswertung/data/PDMS/AR-PDMS-60-10-60-1,2um-3x3-1
Quasi static measurement routine
Tip parameters (shape,radius, material...)
24.08.2022

Piezo position[nm]	MEMS displ.[nm]	Time[ms]	Cap [pf]	Temp [°C]	Rh [%]
eoh

X-Pos [um]	Y-Pos [um]
0,000000	0,000000

POC
3,277899
2,591800	-0,107962	0,852	-0,135497	22,630000	51,480000
2,607766	0,017176	1,652	-0,135447	22,630000	51,480000
2,623755	-0,082198	2,453	-0,135487	22,630000	51,480000
2,639811	-0,249048	3,255	-0,135553	22,640000	51,520000
2,655741	-0,057661	4,059	-0,135477	22,640000	51,520000
2,671759	-0,198748	4,860	-0,135533	22,640000	51,520000
2,687780	-0,215923	5,661	-0,135540	22,640000	51,505000
2,703846	-0,390134	6,461	-0,135609	22,640000	51,505000
2,719786	-0,390134	7,264	-0,135609	22,630000	51,490000
2,735828	-0,008588	8,066	-0,135458	22,630000	51,490000
2,751812	-0,290760	8,870	-0,135570	22,630000	51,490000
2,767774	-0,298121	9,671	-0,135573	22,650000	51,495000
2,783737	-0,398722	10,476	-0,135613	22,650000	51,495000
2,799756	-0,323885	11,277	-0,135583	22,650000	51,495000
2,815765	-0,332473	12,077	-0,135586	22,650000	51,495000
2,831791	-0,581521	12,880	-0,135686	22,650000	51,495000
2,847729	-0,257636	13,682	-0,135557	22,640000	51,520000
2,863712	-0,490735	14,484	-0,135649	22,640000	51,520000
2,879727	-0,456383	15,286	-0,135636	22,640000	51,505000
2,895767	-0,490735	16,089	-0,135649	22,640000	51,505000
2,911810	-0,522633	16,892	-0,135662	22,640000	51,505000
2,927772	-0,506684	17,695	-0,135656	22,640000	51,505000
2,943766	-0,531221	18,499	-0,135666	22,640000	51,505000
2,959727	-0,938531	19,299	-0,135828	22,640000	51,505000
2,975751	-0,922582	20,101	-0,135821	22,640000	51,505000
2,991749	-0,813393	20,904	-0,135778	22,640000	51,505000
3,007785	-1,063668	21,709	-0,135877	22,640000	51,520000
3,023733	-1,030543	22,511	-0,135864	22,640000	51,520000
3,039731	-1,055080	23,312	-0,135874	22,640000	51,520000
3,055785	-1,178991	24,114	-0,135923	22,640000	51,520000
3,071749	-1,229291	24,914	-0,135943	22,640000	51,520000
3,087688	-1,462390	25,714	-0,136036	22,640000	51,520000
3,103748	-66,634442	26,516	-0,161975	22,640000	51,520000
3,119785	-62,503681	27,320	-0,160331	22,640000	51,490000
3,135780	-57,749686	28,123	-0,158438	22,640000	51,490000
3,151722	-50,968956	28,928	-0,155740	22,640000	51,490000
3,167684	-45,059281	29,729	-0,153388	22,640000	51,490000
3,183745	-38,950858	30,535	-0,150957	22,640000	51,490000
3,199704	-32,494013	31,338	-0,148387	22,640000	51,480000
3,215716	-25,912031	32,139	-0,145767	22,640000	51,480000
3,231737	-19,637985	32,939	-0,143270	22,640000	51,480000
3,247711	-12,997114	33,742	-0,140627	22,630000	51,520000
3,263685	-5,534263	34,543	-0,137657	22,630000	51,520000
3,279780	3,016793	35,346	-0,134253	22,640000	51,480000
3,295697	8,876168	36,147	-0,131921	22,640000	51,480000
3,311661	16,612604	36,947	-0,128842	22,640000	51,480000
3,327701	24,250893	37,749	-0,125802	22,640000	51,490000
3,343670	32,693988	38,549	-0,122442	22,640000	51,490000
3,359649	9,366903	39,350	-0,131726	22,630000	51,505000
3,375682	15,341601	40,152	-0,129348	22,630000	51,505000
3,391728	23,826407	40,953	-0,125971	22,630000	51,505000
3,407635	31,438933	41,755	-0,122941	22,630000	51,505000
3,423709	39,275970	42,558	-0,119822	22,630000	51,505000
3,439655	45,476405	43,360	-0,117354	22,640000	51,505000
3,455659	48,742246	44,163	-0,116055	22,640000	51,505000
3,471669	54,102299	44,963	-0,113921	22,640000	51,505000
3,487642	61,798249	45,765	-0,110858	22,640000	51,490000
3,503676	70,890340	46,568	-0,107240	22,640000	51,490000
3,519654	79,042674	47,369	-0,103995	22,640000	51,480000
3,535679	88,034165	48,171	-0,100417	22,640000	51,480000
3,551675	97,201093	48,972	-0,096768	22,640000	51,480000
3,567648	106,260060	49,775	-0,093163	22,640000	51,480000
3,583699	116,590030	50,578	-0,089051	22,640000	51,480000
3,599670	124,684703	51,382	-0,085830	22,640000	51,505000
3,615669	134,574238	52,184	-0,081894	22,640000	51,505000
3,631617	143,483531	52,986	-0,078348	22,640000	51,505000
3,647687	152,741245	53,788	-0,074663	22,630000	51,465000
3,663668	163,844123	54,592	-0,070244	22,630000	51,465000
3,679623	171,498361	55,393	-0,067198	22,640000	51,480000
3,695646	181,861456	56,197	-0,063073	22,640000	51,480000
3,711613	190,779336	56,998	-0,059524	22,640000	51,480000
3,727610	200,502022	57,800	-0,055654	22,640000	51,520000
3,743687	210,417321	58,602	-0,051708	22,640000	51,520000
3,759632	219,359738	59,403	-0,048149	22,650000	51,495000
3,775670	229,315523	60,206	-0,044187	22,650000	51,495000
3,777616	231,160686	61,010	-0,043452	22,650000	51,495000
3,777595	230,262641	61,812	-0,043810	22,630000	51,505000
3,777566	229,522858	62,613	-0,044104	22,630000	51,505000
3,777610	229,439433	63,414	-0,044137	22,640000	51,505000
3,777630	228,891037	64,216	-0,044355	22,640000	51,505000
3,777620	228,866500	65,017	-0,044365	22,640000	51,505000
3,777652	228,783076	65,819	-0,044398	22,640000	51,505000
3,777608	228,177018	66,622	-0,044640	22,640000	51,505000
3,777610	228,143893	67,426	-0,044653	22,650000	51,485000
3,777630	227,935331	68,227	-0,044736	22,650000	51,485000
3,777646	227,727995	69,030	-0,044818	22,650000	51,485000
3,777647	227,404110	69,830	-0,044947	22,640000	51,490000
3,771559	224,303893	70,632	-0,046181	22,640000	51,490000
3,755621	213,542076	71,434	-0,050464	22,630000	51,530000
3,739598	202,904169	72,235	-0,054698	22,630000	51,530000
3,723623	192,490774	73,039	-0,058843	22,630000	51,530000
3,707575	180,482491	73,843	-0,063622	22,630000	51,530000
3,691572	171,630859	74,646	-0,067145	22,630000	51,530000
3,675671	161,043253	75,449	-0,071359	22,640000	51,530000
3,659663	150,629858	76,249	-0,075503	22,640000	51,530000
3,643654	140,766086	77,050	-0,079429	22,640000	51,530000
3,627629	130,352691	77,851	-0,083574	22,640000	51,530000
3,611625	120,587066	78,653	-0,087460	22,640000	51,530000
3,595694	111,122016	79,455	-0,091228	22,630000	51,480000
3,579726	99,827752	80,257	-0,095723	22,630000	51,480000
3,563752	91,492619	81,060	-0,099040	22,640000	51,490000
3,547650	80,729576	81,862	-0,103324	22,640000	51,490000
3,531696	72,178520	82,664	-0,106727	22,640000	51,490000
3,515665	62,214147	83,468	-0,110693	22,640000	51,490000
3,499634	52,888957	84,269	-0,114404	22,640000	51,490000
3,483652	41,902628	85,073	-0,118777	22,640000	51,480000
3,467643	32,387278	85,876	-0,122564	22,640000	51,480000
3,451708	23,544235	86,679	-0,126083	22,640000	51,480000
3,435671	14,394482	87,480	-0,129725	22,630000	51,490000
3,419632	5,742825	88,282	-0,133168	22,630000	51,490000
3,403695	-3,822825	89,083	-0,136976	22,640000	51,455000
3,387724	-12,615568	89,887	-0,140475	22,640000	51,455000
3,371694	-22,113743	90,691	-0,144255	22,640000	51,455000
3,355697	-32,394639	91,491	-0,148347	22,630000	51,465000
3,339706	-40,331050	92,291	-0,151506	22,630000	51,465000
3,323686	-50,029199	93,094	-0,155366	22,640000	51,465000
3,307720	-57,625775	93,897	-0,158389	22,640000	51,465000
3,291782	-66,086045	94,698	-0,161756	22,640000	51,465000
3,275721	-75,709357	95,502	-0,165586	22,630000	51,505000
3,259711	-82,009167	96,306	-0,168094	22,630000	51,505000
3,243754	-90,850983	97,107	-0,171613	22,640000	51,490000
3,227701	-97,325004	97,909	-0,174189	22,640000	51,490000
3,211757	-102,054462	98,712	-0,176072	22,640000	51,490000
3,195695	-105,627012	99,515	-0,177494	22,630000	51,490000
3,179713	-110,339294	100,317	-0,179369	22,630000	51,490000
3,163753	-118,209455	101,119	-0,182501	22,640000	51,490000
3,147753	-125,931170	101,922	-0,185575	22,640000	51,490000
3,131741	-132,553637	102,726	-0,188210	22,640000	51,490000
3,115761	-140,855645	103,527	-0,191515	22,640000	51,490000
3,099768	-147,978663	104,329	-0,194350	22,640000	51,490000
3,083758	-155,815700	105,131	-0,197469	22,640000	51,505000
3,067722	-163,311676	105,931	-0,200452	22,640000	51,505000
3,051768	-171,331511	106,734	-0,203644	22,640000	51,505000
3,035823	-180,314414	107,535	-0,207219	22,640000	51,545000
3,019761	-186,863271	108,338	-0,209826	22,640000	51,545000
3,003808	-194,343299	109,138	-0,212803	22,630000	51,520000
2,987763	-202,812156	109,941	-0,216173	22,630000	51,520000
2,971750	-209,510688	110,743	-0,218839	22,630000	51,520000
2,955817	-215,069488	111,543	-0,221052	22,640000	51,530000
2,939774	-219,931444	112,346	-0,222987	22,640000	51,530000
2,923746	-221,419598	113,150	-0,223579	22,630000	51,520000
2,907755	-158,632518	113,950	-0,198590	22,630000	51,520000
2,891762	-158,009285	114,754	-0,198342	22,630000	51,520000
2,875787	-159,057004	115,557	-0,198759	22,630000	51,520000
2,859719	-161,118090	116,360	-0,199579	22,630000	51,520000
2,843734	-162,406270	117,162	-0,200092	22,630000	51,505000
2,827845	-162,330206	117,964	-0,200062	22,630000	51,505000
2,811806	-160,385669	118,767	-0,199288	22,630000	51,505000
2,795760	-149,183417	119,570	-0,194829	22,630000	51,505000
2,779835	-0,971655	120,372	-0,135841	22,630000	51,505000
2,763699	-0,788856	121,172	-0,135768	22,640000	51,490000
2,747751	-1,030543	121,973	-0,135864	22,640000	51,490000
2,731786	-0,955706	122,774	-0,135834	22,640000	51,490000
2,715793	-0,623233	123,578	-0,135702	22,630000	51,505000
2,699795	-0,738556	124,381	-0,135748	22,630000	51,505000
2,683795	-0,656358	125,182	-0,135715	22,650000	51,495000
2,667821	-0,905406	125,986	-0,135814	22,650000	51,495000
2,651815	-0,597470	126,788	-0,135692	22,650000	51,495000
2,635766	-0,905406	127,589	-0,135814	22,650000	51,495000
2,619796	-0,821981	128,390	-0,135781	22,650000	51,495000
2,603737	-0,755732	129,192	-0,135755	22,640000	51,465000
2,587773	-0,298121	129,995	-0,135573	22,640000	51,465000
2,577817	-0,764320	130,497	-0,135758	22,640000	51,465000

X-Pos [um]	Y-Pos [um]
0,000000	4,997459

POC
3,293460
2,607441	0,241687	0,843	-0,135474	22,640000	51,505000
2,623423	-0,082198	1,645	-0,135603	22,650000	51,495000
2,639425	-0,099374	2,447	-0,135609	22,650000	51,495000
2,655415	-0,024537	3,247	-0,135580	22,650000	51,495000
2,671385	-0,149674	4,048	-0,135629	22,650000	51,495000
2,687398	-0,199974	4,850	-0,135649	22,650000	51,495000
2,703412	-0,123911	5,651	-0,135619	22,630000	51,490000
2,719433	-0,116550	6,452	-0,135616	22,630000	51,490000
2,735377	-0,199974	7,255	-0,135649	22,630000	51,490000
2,751441	-0,199974	8,056	-0,135649	22,640000	51,490000
2,767406	-0,498096	8,858	-0,135768	22,640000	51,490000
2,783382	-0,357010	9,660	-0,135712	22,640000	51,490000
2,799390	-0,398722	10,463	-0,135729	22,640000	51,490000
2,815410	-0,332473	11,266	-0,135702	22,640000	51,490000
2,831389	-0,381546	12,069	-0,135722	22,620000	51,480000
2,847371	-0,398722	12,872	-0,135729	22,620000	51,480000
2,863425	-0,498096	13,675	-0,135768	22,630000	51,520000
2,879444	-0,282173	14,478	-0,135682	22,630000	51,520000
2,895368	-0,423259	15,281	-0,135738	22,630000	51,520000
2,911369	-0,640409	16,082	-0,135825	22,640000	51,480000
2,927360	-0,539808	16,885	-0,135785	22,640000	51,480000
2,943376	-0,473559	17,688	-0,135758	22,640000	51,480000
2,959358	-0,722607	18,492	-0,135857	22,640000	51,480000
2,975394	-0,689483	19,295	-0,135844	22,640000	51,480000
2,991395	-0,590109	20,098	-0,135805	22,630000	51,520000
3,007385	-0,755732	20,899	-0,135871	22,630000	51,520000
3,023366	-1,072256	21,702	-0,135997	22,640000	51,530000
3,039363	-0,880869	22,503	-0,135920	22,640000	51,530000
3,055387	-1,187579	23,306	-0,136042	22,640000	51,530000
3,071364	-1,013368	24,109	-0,135973	22,640000	51,530000
3,087315	-0,922582	24,914	-0,135937	22,640000	51,530000
3,103332	-1,852524	25,717	-0,136307	22,630000	51,490000
3,119297	-66,908026	26,521	-0,162199	22,630000	51,490000
3,135337	-59,553137	27,323	-0,159272	22,630000	51,490000
3,151345	-53,611564	28,126	-0,156907	22,640000	51,520000
3,167355	-47,818438	28,929	-0,154602	22,640000	51,520000
3,183360	-42,367600	29,731	-0,152432	22,640000	51,520000
3,199341	-36,325426	30,535	-0,150027	22,640000	51,520000
3,215331	-28,946000	31,337	-0,147090	22,650000	51,535000
3,231360	-22,214343	32,139	-0,144411	22,650000	51,535000
3,247304	-16,687441	32,942	-0,142211	22,650000	51,535000
3,263342	-9,515350	33,743	-0,139357	22,650000	51,535000
3,279412	-2,409508	34,545	-0,136529	22,650000	51,535000
3,295297	4,504947	35,347	-0,133777	22,630000	51,490000
3,311320	11,153178	36,149	-0,131131	22,630000	51,490000
3,327368	18,657742	36,952	-0,128144	22,630000	51,490000
3,343319	25,746408	37,754	-0,125323	22,640000	51,520000
3,359326	2,419323	38,555	-0,134607	22,640000	51,520000
3,375347	9,523938	39,359	-0,131779	22,640000	51,520000
3,391263	18,043096	40,161	-0,128389	22,640000	51,520000
3,407279	24,865539	40,963	-0,125673	22,640000	51,520000
3,423310	26,710702	41,771	-0,124939	22,630000	51,480000
3,439292	32,977387	42,574	-0,122445	22,630000	51,480000
3,455276	41,594692	43,374	-0,119015	22,630000	51,480000
3,471346	48,202438	44,175	-0,116385	22,630000	51,480000
3,487313	56,330235	44,979	-0,113150	22,630000	51,480000
3,503257	65,172052	45,782	-0,109631	22,650000	51,485000
3,519298	74,156181	46,584	-0,106056	22,650000	51,485000
3,535286	84,851749	47,384	-0,101799	22,650000	51,485000
3,551264	93,910716	48,185	-0,098193	22,650000	51,485000
3,567294	103,534028	48,987	-0,094363	22,650000	51,485000
3,583246	111,179678	49,787	-0,091320	22,650000	51,525000
3,599281	122,082581	50,588	-0,086981	22,650000	51,525000
3,615233	130,361279	51,391	-0,083686	22,650000	51,525000
3,631282	139,485268	52,194	-0,080055	22,650000	51,525000
3,647245	149,200593	52,995	-0,076188	22,650000	51,525000
3,663311	158,691406	53,799	-0,072411	22,650000	51,495000
3,679272	168,373606	54,599	-0,068557	22,650000	51,495000
3,695293	179,509609	55,400	-0,064125	22,650000	51,510000
3,711295	187,595693	56,202	-0,060907	22,650000	51,510000
3,727264	197,876590	57,006	-0,056815	22,650000	51,510000
3,743248	207,399301	57,809	-0,053025	22,650000	51,510000
3,759286	216,931827	58,611	-0,049231	22,650000	51,510000
3,775219	226,580903	59,413	-0,045391	22,640000	51,455000
3,791235	236,204214	60,215	-0,041561	22,640000	51,455000
3,793276	238,124215	61,018	-0,040796	22,640000	51,455000
3,793207	237,734081	61,820	-0,040952	22,630000	51,480000
3,793216	237,119435	62,622	-0,041196	22,630000	51,480000
3,793238	236,653237	63,424	-0,041382	22,630000	51,480000
3,793245	236,428726	64,226	-0,041471	22,630000	51,480000
3,793247	236,362476	65,028	-0,041498	22,630000	51,480000
3,793250	236,146553	65,830	-0,041583	22,640000	51,505000
3,793231	235,747831	66,631	-0,041742	22,640000	51,505000
3,793243	235,580981	67,434	-0,041809	22,630000	51,490000
3,793213	235,697531	68,235	-0,041762	22,630000	51,490000
3,793215	235,124598	69,037	-0,041990	22,630000	51,490000
3,793242	235,173671	69,839	-0,041971	22,630000	51,490000
3,787229	232,156878	70,642	-0,043171	22,630000	51,490000
3,771242	221,453949	71,445	-0,047431	22,630000	51,490000
3,755265	210,524056	72,248	-0,051781	22,630000	51,490000
3,739237	200,019875	73,051	-0,055962	22,630000	51,490000
3,723229	189,199170	73,854	-0,060269	22,640000	51,490000
3,707242	178,237378	74,655	-0,064631	22,640000	51,490000
3,691261	167,792085	75,456	-0,068789	22,640000	51,490000
3,675273	157,951623	76,257	-0,072705	22,640000	51,490000
3,659257	148,004426	77,061	-0,076664	22,640000	51,490000
3,643261	137,989753	77,863	-0,080650	22,640000	51,505000
3,627252	127,750569	78,665	-0,084725	22,640000	51,505000
3,611252	117,919922	79,467	-0,088638	22,630000	51,520000
3,595252	107,996035	80,267	-0,092587	22,630000	51,520000
3,579271	96,736122	81,068	-0,097069	22,630000	51,520000
3,563279	87,868542	81,871	-0,100598	22,640000	51,465000
3,547233	77,994955	82,674	-0,104528	22,640000	51,465000
3,531247	68,512730	83,477	-0,108302	22,640000	51,465000
3,515223	57,251590	84,282	-0,112784	22,640000	51,465000
3,499219	49,008470	85,086	-0,116064	22,640000	51,465000
3,483330	38,661324	85,890	-0,120183	22,630000	51,490000
3,467262	29,594996	86,691	-0,123791	22,630000	51,490000
3,451323	18,633205	87,498	-0,128154	22,640000	51,490000
3,435250	9,166928	88,300	-0,131921	22,640000	51,490000
3,419281	0,066249	89,102	-0,135543	22,640000	51,490000
3,403320	-9,191465	89,905	-0,139228	22,640000	51,520000
3,387259	-17,610023	90,707	-0,142579	22,640000	51,520000
3,371296	-27,008823	91,508	-0,146319	22,640000	51,520000
3,355264	-36,059202	92,308	-0,149921	22,640000	51,520000
3,339267	-44,726808	93,110	-0,153371	22,640000	51,520000
3,323307	-55,240804	93,912	-0,157556	22,650000	51,485000
3,307297	-62,611642	94,714	-0,160489	22,650000	51,485000
3,291324	-72,683977	95,514	-0,164498	22,640000	51,480000
3,275260	-80,221665	96,318	-0,167498	22,640000	51,480000
3,259335	-88,848785	97,120	-0,170932	22,640000	51,480000
3,243347	-96,527560	97,922	-0,173988	22,640000	51,520000
3,227365	-103,583101	98,724	-0,176796	22,640000	51,520000
3,211378	-110,222745	99,526	-0,179438	22,640000	51,480000
3,195364	-118,160382	100,331	-0,182598	22,640000	51,480000
3,179360	-124,418479	101,133	-0,185088	22,640000	51,480000
3,163334	-127,259834	101,934	-0,186219	22,640000	51,480000
3,147409	-132,579401	102,736	-0,188336	22,640000	51,480000
3,131317	-138,762661	103,539	-0,190797	22,640000	51,480000
3,115327	-145,618228	104,344	-0,193526	22,640000	51,480000
3,099363	-154,252709	105,144	-0,196962	22,640000	51,480000
3,083379	-161,890998	105,944	-0,200002	22,640000	51,480000
3,067406	-169,436047	106,747	-0,203005	22,640000	51,480000
3,051385	-176,094094	107,548	-0,205655	22,640000	51,490000
3,035377	-183,755693	108,352	-0,208705	22,640000	51,490000
3,019362	-190,570774	109,154	-0,211417	22,640000	51,490000
3,003374	-198,049574	109,956	-0,214394	22,630000	51,490000
[...]
2,682708	-0,316524	9,717	-0,135702	22,640000	51,490000
2,698739	-0,449022	10,519	-0,135755	22,640000	51,490000
2,714706	-0,415898	11,323	-0,135742	22,640000	51,490000
2,730701	-0,548396	12,123	-0,135794	22,640000	51,455000
2,746702	-0,765546	12,928	-0,135881	22,640000	51,455000
2,762674	-0,698070	13,732	-0,135854	22,640000	51,455000
2,778694	-0,814620	14,534	-0,135900	22,640000	51,455000
2,794736	-0,482147	15,339	-0,135768	22,640000	51,455000
2,810745	-1,014594	16,139	-0,135980	22,640000	51,480000
2,826715	-0,997419	16,941	-0,135973	22,640000	51,480000
2,842703	-0,814620	17,742	-0,135900	22,640000	51,465000
2,858718	-1,023182	18,543	-0,135983	22,640000	51,465000
2,874654	-0,981470	19,345	-0,135967	22,640000	51,465000
2,890684	-0,939757	20,146	-0,135950	22,640000	51,490000
2,906712	-1,147093	20,948	-0,136033	22,640000	51,490000
2,922686	-1,096793	21,753	-0,136013	22,640000	51,465000
2,938628	-1,113968	22,554	-0,136020	22,640000	51,465000
2,954661	-1,230518	23,358	-0,136066	22,640000	51,465000
2,970738	-1,329892	24,158	-0,136105	22,630000	51,425000
2,986711	-1,171630	24,959	-0,136042	22,630000	51,425000
3,002690	-69,194851	25,761	-0,163116	22,640000	51,465000
3,018696	-64,947540	26,564	-0,161425	22,640000	51,465000
3,034695	-59,719987	27,368	-0,159345	22,640000	51,465000
3,050665	-54,883794	28,173	-0,157420	22,640000	51,480000
3,066661	-49,083307	28,977	-0,155111	22,640000	51,480000
3,082632	-43,614066	29,779	-0,152935	22,640000	51,480000
3,098603	-37,174397	30,581	-0,150372	22,640000	51,480000
3,114639	-29,561872	31,382	-0,147342	22,640000	51,480000
3,130678	-23,984669	32,186	-0,145122	22,640000	51,480000
3,146671	-16,962253	32,990	-0,142327	22,640000	51,480000
3,162634	-10,928667	33,793	-0,139926	22,630000	51,425000
3,178595	-3,033969	34,597	-0,136784	22,630000	51,425000
3,194649	3,406927	35,400	-0,134220	22,630000	51,425000
3,210641	9,823286	36,204	-0,131667	22,640000	51,505000
3,226666	17,161000	37,006	-0,128746	22,640000	51,505000
3,242596	24,075455	37,809	-0,125994	22,640000	51,465000
3,258621	31,130997	38,614	-0,123186	22,640000	51,465000
3,274567	39,316455	39,418	-0,119928	22,640000	51,465000
3,290595	33,549093	40,222	-0,122224	22,630000	51,480000
3,306601	21,274586	41,023	-0,127109	22,630000	51,480000
3,322600	28,904287	41,825	-0,124072	22,630000	51,480000
3,338609	33,923279	42,629	-0,122075	22,630000	51,480000
3,354572	38,444174	43,429	-0,120275	22,630000	51,480000
3,370639	44,328086	44,231	-0,117934	22,640000	51,455000
3,386661	50,462272	45,033	-0,115492	22,640000	51,455000
3,402621	59,004740	45,835	-0,112092	22,640000	51,455000
3,418602	65,870122	46,640	-0,109360	22,640000	51,455000
3,434571	74,039632	47,440	-0,106108	22,640000	51,455000
3,450615	83,196745	48,242	-0,102464	22,620000	51,455000
3,466609	92,247124	49,044	-0,098862	22,620000	51,455000
3,482563	102,577094	49,849	-0,094750	22,630000	51,465000
3,498546	111,968534	50,651	-0,091013	22,630000	51,465000
3,514577	119,888996	51,453	-0,087860	22,630000	51,465000
3,530606	129,977279	52,254	-0,083845	22,630000	51,465000
3,546556	138,329587	53,059	-0,080521	22,630000	51,465000
3,562573	149,025155	53,862	-0,076264	22,640000	51,455000
3,578597	157,029042	54,662	-0,073079	22,640000	51,455000
3,594456	166,859689	55,463	-0,069166	22,640000	51,455000
3,610557	177,331972	56,267	-0,064998	22,640000	51,480000
3,626599	187,221508	57,069	-0,061062	22,640000	51,480000
3,642566	195,281829	57,872	-0,057854	22,640000	51,455000
3,658544	204,997154	58,675	-0,053987	22,640000	51,455000
3,674503	213,782536	59,478	-0,050491	22,640000	51,455000
3,690537	225,500059	60,280	-0,045827	22,640000	51,455000
3,692577	225,724570	61,082	-0,045738	22,640000	51,455000
3,692565	225,101337	61,886	-0,045986	22,640000	51,465000
3,692552	224,652314	62,688	-0,046165	22,640000	51,465000
3,692570	224,511228	63,492	-0,046221	22,640000	51,465000
3,692501	224,053618	64,294	-0,046403	22,630000	51,490000
3,692616	223,929707	65,095	-0,046452	22,630000	51,490000
3,692544	223,414435	65,898	-0,046657	22,630000	51,490000
3,692583	222,707777	66,700	-0,046938	22,630000	51,490000
3,692509	223,106499	67,501	-0,046780	22,630000	51,490000
3,692545	222,707777	68,303	-0,046938	22,640000	51,490000
3,692557	222,815739	69,105	-0,046896	22,640000	51,490000
3,692561	222,582640	69,907	-0,046988	22,630000	51,455000
3,686530	219,682396	70,709	-0,048143	22,630000	51,455000
3,670566	207,150253	71,511	-0,053130	22,630000	51,455000
3,654535	198,007862	72,316	-0,056769	22,640000	51,440000
3,638601	187,371182	73,117	-0,061002	22,640000	51,440000
3,622546	176,990912	73,920	-0,065134	22,640000	51,440000
3,606573	166,361593	74,721	-0,069364	22,640000	51,440000
3,590579	156,513770	75,524	-0,073284	22,640000	51,440000
3,574536	146,283174	76,328	-0,077355	22,630000	51,425000
3,558531	134,914072	77,130	-0,081880	22,630000	51,425000
3,542566	126,345841	77,933	-0,085291	22,640000	51,465000
3,526556	115,799947	78,738	-0,089488	22,640000	51,465000
3,510526	105,294539	79,539	-0,093669	22,640000	51,465000
3,494569	96,693183	80,339	-0,097092	22,630000	51,490000
3,478615	86,928785	81,142	-0,100979	22,630000	51,490000
3,462617	75,634520	81,943	-0,105474	22,640000	51,480000
3,446550	67,357049	82,745	-0,108768	22,640000	51,480000
3,430598	56,353545	83,546	-0,113147	22,640000	51,480000
3,414604	46,738821	84,349	-0,116974	22,630000	51,440000
3,398617	37,481107	85,151	-0,120659	22,630000	51,440000
3,382532	28,438089	85,953	-0,124258	22,640000	51,465000
3,366585	19,554560	86,755	-0,127793	22,640000	51,465000
3,350591	8,808692	87,560	-0,132070	22,640000	51,465000
3,334631	-0,515272	88,362	-0,135781	22,640000	51,440000
3,318572	-9,375491	89,164	-0,139308	22,640000	51,440000
3,302600	-17,909371	89,969	-0,142704	22,630000	51,480000
3,286628	-28,098255	90,773	-0,146759	22,630000	51,480000
3,270643	-37,232059	91,574	-0,150395	22,630000	51,480000
3,254624	-44,710859	92,379	-0,153371	22,630000	51,490000
3,238614	-53,952624	93,181	-0,157049	22,630000	51,490000
3,222670	-63,053304	93,984	-0,160671	22,630000	51,490000
3,206618	-71,646072	94,787	-0,164091	22,630000	51,490000
3,190677	-78,436617	95,588	-0,166794	22,630000	51,490000
3,174642	-86,871123	96,391	-0,170151	22,640000	51,465000
3,158641	-93,336556	97,194	-0,172724	22,640000	51,465000
3,142687	-98,506448	97,998	-0,174782	22,630000	51,465000
3,126685	-104,282398	98,799	-0,177081	22,630000	51,465000
3,110646	-107,556827	99,601	-0,178384	22,630000	51,465000
3,094662	-112,575819	100,402	-0,180381	22,630000	51,465000
3,078652	-119,622772	101,204	-0,183186	22,630000	51,465000
3,062652	-128,399566	102,006	-0,186679	22,640000	51,490000
3,046667	-134,424564	102,810	-0,189077	22,640000	51,490000
3,030631	-142,677499	103,613	-0,192362	22,640000	51,490000
3,014612	-149,101219	104,416	-0,194918	22,640000	51,490000
2,998648	-156,879368	105,220	-0,198014	22,640000	51,490000
2,982675	-164,542193	106,022	-0,201064	22,630000	51,455000
2,966664	-171,639447	106,823	-0,203889	22,630000	51,455000
2,950694	-179,460535	107,625	-0,207001	22,650000	51,495000
2,934668	-186,415476	108,429	-0,209770	22,650000	51,495000
2,918673	-194,584985	109,230	-0,213021	22,650000	51,495000
2,902657	-199,929089	110,030	-0,215148	22,650000	51,470000
2,886697	-206,668106	110,831	-0,217830	22,650000	51,470000
2,870674	-213,059929	111,634	-0,220374	22,650000	51,470000
2,854693	-214,588568	112,439	-0,220982	22,650000	51,470000
2,838681	-146,475787	113,241	-0,193874	22,650000	51,470000
2,822687	-140,258176	114,043	-0,191399	22,630000	51,455000
2,806686	-140,740323	114,845	-0,191591	22,630000	51,455000
2,790675	-141,123096	115,648	-0,191743	22,630000	51,465000
2,774710	-141,854291	116,449	-0,192034	22,630000	51,465000
2,758734	-137,283095	117,251	-0,190215	22,630000	51,465000
2,742728	-115,085928	118,053	-0,181380	22,630000	51,465000
2,726677	-1,380192	118,855	-0,136125	22,630000	51,465000
2,710680	-1,388780	119,658	-0,136129	22,630000	51,425000
2,694689	-1,122556	120,461	-0,136023	22,630000	51,425000
2,678666	-1,072256	121,264	-0,136003	22,630000	51,425000
2,662694	-1,313943	122,064	-0,136099	22,630000	51,480000
2,646723	-1,829214	122,867	-0,136304	22,630000	51,480000
2,630737	-1,056307	123,670	-0,135997	22,630000	51,480000
2,614682	-0,997419	124,470	-0,135973	22,630000	51,480000
2,598714	-0,872281	125,275	-0,135923	22,630000	51,480000
2,582677	-0,880869	126,076	-0,135927	22,640000	51,490000
2,566707	-0,790083	126,882	-0,135891	22,640000	51,490000
2,550702	-0,856332	127,682	-0,135917	22,640000	51,455000
2,534679	-0,831796	128,483	-0,135907	22,640000	51,455000
2,518719	-0,814620	129,285	-0,135900	22,640000	51,455000
2,502699	-0,499323	130,088	-0,135775	22,640000	51,440000
2,492744	-0,731195	130,589	-0,135867	22,640000	51,440000