File: Nanoindentation Datenauswertung/data/PDMS/AR-PDMS-125-10-125-2,5um-diff_LF-5x5-1
Quasi static measurement routine
Tip parameters (shape,radius, material...)
26.08.2022

Piezo position[nm]	MEMS displ.[nm]	Time[ms]	Cap [pf]	Temp [°C]	Rh [%]
eoh

X-Pos [um]	Y-Pos [um]
0,000000	0,000000

POC
2,279980
1,590006	0,306709	0,643	-0,135292	22,650000	54,920000
1,602004	0,407310	1,247	-0,135252	22,650000	54,920000
1,613903	0,249048	1,847	-0,135315	22,650000	54,920000
1,625986	0,323885	2,447	-0,135285	22,650000	54,920000
1,638014	0,198748	3,047	-0,135335	22,650000	54,920000
1,649975	0,298121	3,649	-0,135295	22,650000	54,920000
1,661967	0,290760	4,249	-0,135298	22,670000	54,920000
1,673984	0,306709	4,851	-0,135292	22,670000	54,920000
1,685963	0,282173	5,453	-0,135302	22,670000	54,920000
1,697968	0,107962	6,056	-0,135371	22,670000	54,880000
1,709949	0,007361	6,657	-0,135411	22,670000	54,880000
1,721954	0,082198	7,259	-0,135381	22,670000	54,880000
1,733976	0,249048	7,860	-0,135315	22,670000	54,880000
1,745984	0,115323	8,460	-0,135368	22,670000	54,880000
1,757959	0,198748	9,060	-0,135335	22,670000	54,880000
1,769939	0,240460	9,663	-0,135318	22,670000	54,880000
1,781977	0,107962	10,263	-0,135371	22,650000	54,890000
1,793924	0,141086	10,866	-0,135358	22,650000	54,890000
1,805967	0,115323	11,468	-0,135368	22,650000	54,890000
1,817907	0,024537	12,068	-0,135404	22,650000	54,890000
1,829976	0,007361	12,669	-0,135411	22,650000	54,890000
1,841953	-0,166850	13,269	-0,135480	22,650000	54,890000
1,853961	0,157035	13,870	-0,135352	22,660000	54,920000
1,865948	0,073610	14,472	-0,135385	22,660000	54,920000
1,877960	-0,116550	15,074	-0,135460	22,660000	54,920000
1,889929	-0,092013	15,676	-0,135451	22,660000	54,920000
1,901917	-0,274812	16,276	-0,135523	22,660000	54,920000
1,913968	-0,257636	16,878	-0,135517	22,660000	54,920000
1,925881	-0,149674	17,479	-0,135474	22,660000	54,920000
1,937934	-0,250275	18,083	-0,135514	22,660000	54,905000
1,949969	-0,175438	18,684	-0,135484	22,660000	54,905000
1,961926	-0,233099	19,286	-0,135507	22,660000	54,905000
1,974040	-0,033125	19,888	-0,135427	22,660000	54,920000
1,985990	-0,274812	20,490	-0,135523	22,660000	54,920000
1,997960	-0,307936	21,091	-0,135537	22,660000	54,920000
2,009937	-0,532447	21,693	-0,135626	22,660000	54,920000
2,021977	-0,433074	22,296	-0,135586	22,660000	54,920000
2,033956	-0,664946	22,897	-0,135679	22,660000	54,920000
2,045978	-0,466198	23,498	-0,135600	22,660000	54,920000
2,057971	-0,598697	24,101	-0,135652	22,660000	54,920000
2,069931	-0,706658	24,703	-0,135695	22,660000	54,920000
2,081953	-0,790083	25,303	-0,135729	22,660000	54,920000
2,093956	-70,025420	25,903	-0,163284	22,660000	54,930000
2,106008	-66,535068	26,505	-0,161895	22,660000	54,930000
2,117974	-61,690287	27,106	-0,159967	22,660000	54,930000
2,129930	-57,900587	27,708	-0,158458	22,660000	54,930000
2,141976	-54,683819	28,309	-0,157178	22,650000	54,930000
2,153916	-50,030426	28,909	-0,155326	22,650000	54,930000
2,165927	-45,118169	29,510	-0,153371	22,650000	54,930000
2,177909	-40,539612	30,111	-0,151549	22,660000	54,975000
2,189959	-36,276352	30,713	-0,149852	22,660000	54,975000
2,201936	-31,223010	31,315	-0,147841	22,660000	54,975000
2,213937	-25,123174	31,916	-0,145413	22,670000	54,945000
2,225987	-20,743365	32,517	-0,143670	22,670000	54,945000
2,237932	-16,023722	33,120	-0,141792	22,670000	54,945000
2,249976	-12,009510	33,721	-0,140194	22,670000	54,945000
2,261958	-6,757420	34,325	-0,138104	22,650000	54,945000
2,273922	-1,396141	34,929	-0,135970	22,650000	54,945000
2,285964	3,930787	35,531	-0,133850	22,650000	54,945000
2,297936	9,282251	36,132	-0,131720	22,660000	54,945000
2,309960	15,848284	36,736	-0,129106	22,660000	54,945000
2,321936	21,316298	37,338	-0,126930	22,660000	54,945000
2,334003	26,801488	37,938	-0,124747	22,660000	54,945000
2,345943	31,762818	38,538	-0,122772	22,660000	54,945000
2,357952	36,633362	39,142	-0,120834	22,660000	54,945000
2,369942	41,851101	39,743	-0,118757	22,660000	54,945000
2,381901	47,236917	40,345	-0,116614	22,680000	54,935000
2,393931	53,037404	40,946	-0,114305	22,680000	54,935000
2,405921	57,991373	41,547	-0,112333	22,680000	54,935000
2,417900	63,375962	42,149	-0,110190	22,660000	54,920000
2,429947	69,077075	42,751	-0,107921	22,660000	54,920000
2,441982	75,302047	43,353	-0,105444	22,660000	54,920000
2,453919	50,784931	43,957	-0,115202	22,650000	54,930000
2,465901	46,439473	44,557	-0,116931	22,650000	54,930000
2,477957	51,233953	45,158	-0,115023	22,650000	54,930000
2,479961	50,577595	45,761	-0,115284	22,650000	54,930000
2,479884	48,799908	46,361	-0,115992	22,650000	54,930000
2,479948	47,494553	46,965	-0,116511	22,650000	54,930000
2,479918	46,589147	47,566	-0,116872	22,650000	54,930000
2,479932	46,297160	48,167	-0,116988	22,670000	54,905000
2,479967	46,164661	48,767	-0,117041	22,670000	54,905000
2,479858	45,499715	49,369	-0,117305	22,670000	54,905000
2,479893	45,233492	49,969	-0,117411	22,670000	54,905000
2,479904	44,851945	50,569	-0,117563	22,670000	54,905000
2,479910	45,275204	51,170	-0,117395	22,670000	54,905000
2,479946	44,827409	51,771	-0,117573	22,670000	54,905000
2,479927	44,726808	52,371	-0,117613	22,660000	54,880000
2,479961	44,336674	52,971	-0,117768	22,660000	54,880000
2,479886	44,361210	53,573	-0,117758	22,660000	54,880000
2,479921	44,294961	54,174	-0,117785	22,660000	54,930000
2,479943	43,779689	54,777	-0,117990	22,660000	54,930000
2,477912	43,788277	55,378	-0,117986	22,660000	54,930000
2,465882	35,876404	55,979	-0,121135	22,660000	54,930000
2,453945	26,735239	56,581	-0,124773	22,660000	54,930000
2,441904	20,376541	57,183	-0,127304	22,660000	54,930000
2,429892	12,913690	57,785	-0,130274	22,660000	54,930000
2,417949	4,487771	58,387	-0,133628	22,670000	54,920000
2,405915	-1,895464	58,989	-0,136168	22,670000	54,920000
2,393960	-9,782801	59,592	-0,139308	22,670000	54,920000
2,381908	-15,948885	60,193	-0,141762	22,650000	54,930000
2,369925	-23,511110	60,795	-0,144771	22,650000	54,930000
2,357881	-31,024262	61,397	-0,147762	22,650000	54,930000
2,345935	-36,334014	61,999	-0,149875	22,650000	54,930000
2,333857	-43,373606	62,603	-0,152677	22,650000	54,930000
2,321863	-50,886758	63,203	-0,155667	22,650000	54,930000
2,309913	-56,138849	63,803	-0,157757	22,650000	54,930000
2,297883	-63,467975	64,404	-0,160674	22,660000	54,890000
2,285922	-68,812078	65,006	-0,162801	22,660000	54,890000
2,273919	-76,333818	65,606	-0,165795	22,660000	54,890000
2,261916	-82,026343	66,206	-0,168061	22,660000	54,890000
2,249952	-87,361858	66,807	-0,170184	22,660000	54,890000
2,237874	-93,204057	67,408	-0,172509	22,660000	54,890000
2,225935	-98,755496	68,008	-0,174719	22,660000	54,880000
2,213892	-103,085005	68,611	-0,176442	22,660000	54,880000
2,201900	-106,933594	69,215	-0,177974	22,660000	54,880000
2,189913	-108,021798	69,816	-0,178407	22,660000	54,880000
2,177904	-114,213646	70,416	-0,180871	22,660000	54,920000
2,165948	-119,141852	71,017	-0,182833	22,660000	54,920000
2,153867	-123,529022	71,618	-0,184579	22,660000	54,920000
2,141950	-129,928205	72,219	-0,187125	22,650000	54,930000
2,129917	-134,873587	72,821	-0,189094	22,650000	54,930000
2,117975	-140,075377	73,422	-0,191164	22,650000	54,930000
2,105905	-146,209563	74,024	-0,193605	22,660000	54,905000
2,093980	-151,253092	74,626	-0,195613	22,660000	54,905000
2,081904	-156,090511	75,229	-0,197538	22,660000	54,905000
2,069923	-161,450563	75,830	-0,199671	22,660000	54,920000
2,057960	-167,858335	76,433	-0,202222	22,660000	54,920000
2,045904	-171,822246	77,034	-0,203799	22,660000	54,920000
2,033927	-176,543116	77,636	-0,205678	22,660000	54,920000
2,021876	-181,088548	78,238	-0,207487	22,660000	54,920000
2,009907	-185,027923	78,838	-0,209055	22,660000	54,920000
1,997911	-163,128877	79,440	-0,200339	22,660000	54,920000
1,985934	-134,673612	80,041	-0,189014	22,650000	54,920000
1,973969	-133,535107	80,641	-0,188561	22,650000	54,920000
1,961948	-134,864999	81,242	-0,189090	22,650000	54,920000
1,949947	-137,274507	81,843	-0,190049	22,670000	54,960000
1,937932	-141,173396	82,448	-0,191601	22,670000	54,960000
1,925954	-142,710623	83,049	-0,192213	22,670000	54,960000
1,914057	-145,918803	83,650	-0,193490	22,670000	54,960000
1,901969	-148,619072	84,251	-0,194564	22,670000	54,960000
1,889930	-150,805296	84,853	-0,195435	22,670000	54,960000
1,877962	-152,624696	85,453	-0,196159	22,670000	54,960000
1,865940	-154,029424	86,053	-0,196718	22,660000	54,905000
1,853935	-153,588990	86,657	-0,196542	22,660000	54,905000
1,841927	-153,580402	87,259	-0,196539	22,660000	54,905000
1,829994	-153,098255	87,863	-0,196347	22,660000	54,930000
1,817965	-147,979890	88,465	-0,194310	22,660000	54,930000
1,805949	-133,585408	89,067	-0,188581	22,660000	54,930000
1,793908	-0,025764	89,668	-0,135424	22,660000	54,930000
1,781926	-0,166850	90,270	-0,135480	22,670000	54,930000
1,769911	-0,283399	90,870	-0,135527	22,670000	54,930000
1,757959	-0,175438	91,470	-0,135484	22,670000	54,930000
1,745943	0,107962	92,070	-0,135371	22,670000	54,905000
1,733973	-0,033125	92,671	-0,135427	22,670000	54,905000
1,721974	-0,050300	93,273	-0,135434	22,670000	54,905000
1,709892	0,090786	93,876	-0,135378	22,660000	54,930000
1,697975	-0,100601	94,478	-0,135454	22,660000	54,930000
1,685970	-0,407310	95,081	-0,135576	22,660000	54,930000
1,673959	0,132498	95,683	-0,135361	22,660000	54,930000
1,662034	-0,125137	96,283	-0,135464	22,660000	54,905000
1,649933	0,057661	96,883	-0,135391	22,660000	54,905000
1,637963	0,082198	97,484	-0,135381	22,660000	54,905000
1,625955	0,273585	98,085	-0,135305	22,660000	54,880000
1,613959	0,273585	98,687	-0,135305	22,660000	54,880000
1,601946	0,082198	99,288	-0,135381	22,660000	54,880000
1,589922	0,157035	99,891	-0,135352	22,660000	54,920000
1,579964	-0,083425	100,394	-0,135447	22,660000	54,920000

X-Pos [um]	Y-Pos [um]
0,000265	5,001037

POC
2,267832
1,581775	-0,541035	0,842	-0,135411	22,660000	54,905000
1,597800	-0,482147	1,642	-0,135388	22,660000	54,905000
1,613840	-0,233099	2,444	-0,135289	22,660000	54,905000
1,629789	-0,266224	3,246	-0,135302	22,660000	54,905000
1,645776	-0,415898	4,048	-0,135361	22,660000	54,880000
1,661808	-0,391361	4,852	-0,135352	22,660000	54,880000
1,677824	-0,241687	5,652	-0,135292	22,660000	54,880000
1,693769	-0,433074	6,456	-0,135368	22,670000	54,930000
1,709776	-0,574160	7,261	-0,135424	22,670000	54,930000
1,725758	-0,506684	8,062	-0,135397	22,670000	54,890000
1,741802	-0,274812	8,863	-0,135305	22,670000	54,890000
1,757805	-0,490735	9,664	-0,135391	22,670000	54,890000
1,773803	-0,449022	10,464	-0,135375	22,660000	54,905000
1,789848	-0,574160	11,267	-0,135424	22,660000	54,905000
1,805831	-0,523860	12,068	-0,135404	22,660000	54,890000
1,821759	-0,490735	12,871	-0,135391	22,660000	54,890000
1,837780	-0,532447	13,672	-0,135408	22,660000	54,890000
1,853804	-0,598697	14,475	-0,135434	22,660000	54,890000
1,869774	-0,299348	15,279	-0,135315	22,660000	54,890000
1,885764	-0,657585	16,083	-0,135458	22,660000	54,930000
1,901834	-0,873508	16,885	-0,135543	22,660000	54,930000
1,917798	-0,790083	17,690	-0,135510	22,660000	54,930000
1,933799	-0,772908	18,491	-0,135503	22,660000	54,930000
1,949747	-0,947118	19,291	-0,135573	22,660000	54,930000
1,965765	-0,915221	20,091	-0,135560	22,660000	54,920000
1,981741	-0,823208	20,891	-0,135523	22,660000	54,920000
1,997748	-1,147093	21,695	-0,135652	22,660000	54,920000
2,013715	-0,997419	22,501	-0,135593	22,650000	54,945000
2,029836	-1,288179	23,301	-0,135708	22,650000	54,945000
2,045825	-0,640409	24,101	-0,135451	22,650000	54,905000
2,061780	-1,313943	24,904	-0,135719	22,650000	54,905000
2,077733	-70,083081	25,706	-0,163089	22,650000	54,905000
2,093740	-66,144934	26,507	-0,161521	22,660000	54,890000
2,109806	-60,983629	27,307	-0,159467	22,660000	54,890000
2,125735	-54,883794	28,110	-0,157040	22,660000	54,920000
2,141784	-49,182681	28,911	-0,154771	22,660000	54,920000
2,157767	-43,564993	29,714	-0,152535	22,660000	54,920000
2,173758	-37,514231	30,516	-0,150126	22,660000	54,890000
2,189757	-30,284479	31,320	-0,147249	22,660000	54,890000
2,205747	-25,189424	32,122	-0,145221	22,650000	54,890000
2,221734	-17,618611	32,923	-0,142208	22,650000	54,890000
2,237725	-12,075760	33,725	-0,140002	22,650000	54,890000
2,253723	-5,185841	34,526	-0,137260	22,660000	54,920000
2,269705	1,594889	35,327	-0,134561	22,660000	54,920000
2,285793	8,751031	36,131	-0,131713	22,650000	54,985000
2,301708	14,501217	36,932	-0,129424	22,650000	54,985000
2,317811	22,795864	37,736	-0,126123	22,650000	54,985000
2,333753	30,175291	38,538	-0,123186	22,660000	54,920000
2,349766	35,685017	39,339	-0,120993	22,660000	54,920000
2,365749	42,965069	40,140	-0,118096	22,660000	54,920000
2,381752	51,167704	40,943	-0,114831	22,660000	54,920000
2,397780	57,293302	41,746	-0,112393	22,660000	54,920000
2,413792	65,711860	42,550	-0,109042	22,660000	54,890000
2,429750	72,809114	43,352	-0,106218	22,660000	54,890000
2,445786	44,153875	44,154	-0,117623	22,660000	54,930000
2,461738	41,386130	44,956	-0,118724	22,660000	54,930000
2,477770	48,658821	45,758	-0,115830	22,660000	54,930000
2,493790	57,276127	46,562	-0,112400	22,670000	54,920000
2,509724	66,101994	47,362	-0,108887	22,670000	54,920000
2,525789	75,210035	48,165	-0,105262	22,670000	54,920000
2,541676	86,138701	48,969	-0,100913	22,670000	54,920000
2,557773	94,283674	49,772	-0,097671	22,670000	54,920000
2,573775	104,140085	50,576	-0,093748	22,660000	54,850000
2,589736	113,206413	51,379	-0,090140	22,660000	54,850000
2,605791	122,082581	52,185	-0,086607	22,650000	54,920000
2,621713	131,739017	52,986	-0,082764	22,650000	54,920000
2,637706	142,742521	53,786	-0,078384	22,650000	54,920000
2,653747	150,887494	54,588	-0,075143	22,650000	54,920000
2,669680	160,319419	55,390	-0,071389	22,650000	54,920000
2,685788	170,267843	56,191	-0,067429	22,660000	54,905000
2,701740	179,251973	56,991	-0,063854	22,660000	54,905000
2,717775	190,429688	57,791	-0,059405	22,660000	54,905000
2,733767	198,747644	58,594	-0,056094	22,660000	54,945000
2,749714	208,139084	59,400	-0,052356	22,660000	54,945000
2,765714	218,867776	60,201	-0,048086	22,650000	54,920000
2,781694	228,840737	61,002	-0,044117	22,650000	54,920000
2,797672	237,151333	61,804	-0,040810	22,650000	54,920000
2,813675	247,166006	62,608	-0,036824	22,650000	54,920000
2,829690	256,764781	63,411	-0,033003	22,650000	54,920000
2,845722	266,429805	64,213	-0,029157	22,650000	54,920000
2,861706	277,217386	65,015	-0,024863	22,650000	54,920000
2,867723	280,142166	65,815	-0,023699	22,650000	54,920000
2,867665	279,851405	66,619	-0,023815	22,670000	54,930000
2,867678	279,527520	67,421	-0,023944	22,670000	54,930000
2,867709	278,646651	68,224	-0,024294	22,670000	54,930000
2,867711	278,314178	69,026	-0,024427	22,670000	54,930000
2,867671	278,246702	69,827	-0,024454	22,670000	54,930000
2,867674	277,532683	70,633	-0,024738	22,660000	54,930000
2,867718	277,516734	71,434	-0,024744	22,660000	54,930000
2,867718	277,083660	72,236	-0,024917	22,660000	54,905000
2,867664	276,851788	73,038	-0,025009	22,660000	54,905000
2,867733	277,541271	73,840	-0,024734	22,660000	54,905000
2,867751	276,585565	74,641	-0,025115	22,660000	54,905000
2,865696	276,343878	75,441	-0,025211	22,660000	54,905000
2,849753	265,183339	76,244	-0,029653	22,650000	54,920000
2,833733	254,736819	77,046	-0,033811	22,650000	54,920000
2,817707	242,777609	77,849	-0,038570	22,650000	54,920000
2,801755	231,815817	78,650	-0,042933	22,670000	54,930000
2,785694	223,131036	79,452	-0,046390	22,670000	54,930000
2,769689	211,404925	80,256	-0,051057	22,670000	54,930000
2,753705	201,282290	81,057	-0,055085	22,670000	54,930000
2,737729	192,207375	81,861	-0,058697	22,670000	54,930000
2,721761	181,752267	82,664	-0,062858	22,670000	54,930000
2,705676	171,638220	83,468	-0,066884	22,670000	54,930000
2,689705	161,932710	84,270	-0,070747	22,660000	54,880000
2,673741	151,735239	85,071	-0,074805	22,660000	54,880000
2,657727	141,645729	85,875	-0,078821	22,660000	54,880000
2,641779	131,938992	86,679	-0,082684	22,660000	54,880000
2,625744	120,428804	87,482	-0,087265	22,660000	54,880000
2,609725	110,880329	88,285	-0,091065	22,670000	54,920000
2,593704	102,237261	89,087	-0,094505	22,670000	54,920000
2,577767	91,407968	89,889	-0,098815	22,670000	54,920000
2,561761	82,291340	90,690	-0,102444	22,670000	54,930000
2,545726	72,692564	91,492	-0,106264	22,670000	54,930000
2,529765	63,309713	92,293	-0,109999	22,670000	54,930000
2,513750	53,653276	93,094	-0,113842	22,670000	54,930000
2,497791	44,444635	93,897	-0,117507	22,670000	54,930000
2,481755	33,541732	94,698	-0,121846	22,660000	54,905000
2,465800	24,315916	95,499	-0,125518	22,660000	54,905000
2,449771	15,923121	96,304	-0,128858	22,670000	54,905000
2,433770	5,434889	97,104	-0,133033	22,670000	54,905000
2,417827	-3,166467	97,905	-0,136456	22,670000	54,905000
2,401759	-12,267146	98,710	-0,140078	22,660000	54,930000
2,385736	-21,175212	99,510	-0,143624	22,660000	54,930000
2,369766	-30,524939	100,311	-0,147345	22,670000	54,890000
2,353744	-40,074641	101,112	-0,151146	22,670000	54,890000
2,337769	-48,966758	101,915	-0,154685	22,670000	54,890000
2,321793	-59,246427	102,717	-0,158776	22,670000	54,890000
2,305739	-66,700691	103,519	-0,161743	22,670000	54,890000
2,289759	-76,217268	104,320	-0,165530	22,660000	54,880000
2,273748	-84,111966	105,120	-0,168672	22,660000	54,880000
2,257773	-92,323188	105,923	-0,171940	22,660000	54,880000
2,241817	-100,700033	106,724	-0,175274	22,660000	54,880000
2,225767	-108,528482	107,525	-0,178390	22,660000	54,880000
2,209762	-116,215845	108,325	-0,181450	22,670000	54,920000
[...]
2,250015	11,426763	36,175	-0,130579	22,660000	54,975000
2,280013	24,748989	37,677	-0,125276	22,670000	55,015000
2,310031	36,807573	39,179	-0,120477	22,670000	55,015000
2,340010	50,262298	40,687	-0,115122	22,660000	55,015000
2,370025	32,037630	42,191	-0,122375	22,670000	55,000000
2,400061	37,032084	43,695	-0,120388	22,670000	55,000000
2,430035	52,963794	45,201	-0,114047	22,670000	55,000000
2,459975	69,875746	46,707	-0,107316	22,660000	55,015000
2,489977	86,937372	48,211	-0,100525	22,670000	54,960000
2,519973	103,043293	49,714	-0,094115	22,670000	54,975000
2,550013	120,196932	51,220	-0,087288	22,670000	54,975000
2,579984	137,698993	52,724	-0,080322	22,650000	55,015000
2,610005	155,524939	54,232	-0,073228	22,660000	55,015000
2,640021	172,934987	55,737	-0,066298	22,660000	55,015000
2,670034	191,775528	57,244	-0,058800	22,660000	55,015000
2,699974	209,493512	58,747	-0,051748	22,670000	54,945000
2,730071	226,488890	60,253	-0,044984	22,670000	54,945000
2,759996	244,481686	61,755	-0,037823	22,670000	54,985000
2,789969	263,969996	63,255	-0,030066	22,670000	54,985000
2,819953	281,364096	64,760	-0,023144	22,670000	54,985000
2,849988	299,082080	66,264	-0,016092	22,660000	55,000000
2,879996	317,539848	67,769	-0,008746	22,660000	55,000000
2,910000	335,781692	69,271	-0,001485	22,660000	55,000000
2,939954	350,774870	70,774	0,004482	22,650000	55,000000
2,969992	370,296306	72,282	0,012251	22,670000	55,015000
2,999968	387,116245	73,788	0,018946	22,670000	55,015000
3,029970	406,738281	75,293	0,026755	22,670000	55,015000
3,059980	424,090668	76,799	0,033662	22,660000	54,985000
3,089962	442,090825	78,303	0,040826	22,680000	54,965000
3,119987	462,261257	79,805	0,048854	22,680000	54,965000
3,149942	481,001197	81,312	0,056312	22,680000	54,965000
3,179974	499,143668	82,817	0,063533	22,670000	54,985000
3,210030	517,717984	84,324	0,070925	22,660000	55,015000
3,239913	536,234640	85,830	0,078295	22,660000	54,985000
3,269975	554,285097	87,338	0,085479	22,660000	54,985000
3,299866	572,833651	88,843	0,092861	22,660000	54,985000
3,329926	592,081501	90,349	0,100522	22,670000	54,985000
3,359940	610,431307	91,853	0,107825	22,660000	54,985000
3,389895	629,503720	93,356	0,115416	22,660000	54,985000
3,419825	649,832414	94,860	0,123507	22,660000	54,985000
3,449901	668,297542	96,364	0,130856	22,660000	54,960000
3,479858	687,712243	97,869	0,138583	22,660000	54,960000
3,509872	705,313678	99,372	0,145588	22,660000	54,960000
3,539900	724,859650	100,878	0,153368	22,660000	54,985000
3,569869	744,215462	102,381	0,161071	22,670000	54,985000
3,599886	762,441357	103,888	0,168325	22,660000	55,000000
3,629836	781,421757	105,392	0,175879	22,660000	55,000000
3,659842	800,951780	106,897	0,183652	22,660000	55,000000
3,689840	744,531986	108,400	0,161197	22,670000	54,985000
3,719833	757,852986	109,904	0,166499	22,660000	55,015000
3,749850	776,136542	111,407	0,173776	22,660000	55,015000
3,779900	796,963332	112,911	0,182065	22,670000	55,000000
3,809846	818,620691	114,415	0,190685	22,660000	54,985000
3,839875	840,170089	115,921	0,199261	22,660000	54,985000
3,869908	863,132803	117,423	0,208400	22,660000	54,985000
3,899847	884,823286	118,929	0,217033	22,660000	54,985000
3,929846	905,890537	120,438	0,225418	22,670000	54,985000
3,959874	929,666644	121,941	0,234881	22,670000	54,985000
3,989822	951,757076	123,448	0,243673	22,670000	54,985000
4,019807	975,233835	124,954	0,253017	22,650000	54,985000
4,031801	982,854949	126,457	0,256050	22,670000	55,015000
4,031881	981,401146	127,960	0,255471	22,670000	55,015000
4,031816	979,796443	129,465	0,254833	22,670000	55,015000
4,031851	978,691063	130,970	0,254393	22,670000	54,985000
4,031825	978,001580	132,474	0,254118	22,670000	55,000000
4,031863	977,428647	133,975	0,253890	22,670000	55,000000
4,031867	977,103535	135,478	0,253761	22,670000	55,000000
4,003840	954,250010	136,981	0,244665	22,660000	54,985000
3,973792	928,703576	138,487	0,234498	22,670000	55,025000
3,943797	903,838038	139,990	0,224601	22,670000	55,025000
3,913823	878,083042	141,494	0,214351	22,670000	55,025000
3,883845	854,463970	142,998	0,204950	22,670000	55,015000
3,853848	829,806994	144,504	0,195137	22,670000	55,000000
3,823851	805,648114	146,006	0,185521	22,660000	55,025000
3,793842	781,322383	147,513	0,175840	22,660000	55,025000
3,763866	757,513152	149,019	0,166364	22,650000	54,985000
3,733850	732,048916	150,523	0,156229	22,660000	54,960000
3,703822	709,486151	152,027	0,147249	22,660000	54,960000
3,673806	686,332051	153,529	0,138034	22,660000	54,960000
3,643851	661,583062	155,030	0,128184	22,650000	55,000000
3,613842	639,850866	156,533	0,119534	22,660000	55,000000
3,583851	616,913915	158,040	0,110405	22,660000	55,000000
3,553859	592,779572	159,542	0,100800	22,660000	55,000000
3,523896	570,582404	161,043	0,091965	22,660000	54,985000
3,493886	546,830834	162,549	0,082512	22,670000	54,945000
3,463937	526,136542	164,052	0,074276	22,670000	55,015000
3,433936	502,426684	165,555	0,064839	22,670000	55,015000
3,403907	480,452801	167,061	0,056094	22,670000	54,975000
3,373942	458,962292	168,566	0,047541	22,670000	54,975000
3,343960	434,803412	170,071	0,037925	22,680000	55,005000
3,313967	413,626973	171,576	0,029497	22,680000	55,005000
3,283950	390,823748	173,080	0,020421	22,670000	54,975000
3,253986	370,412855	174,582	0,012298	22,670000	54,975000
3,223940	348,780033	176,085	0,003688	22,670000	55,000000
3,193943	327,056425	177,590	-0,004958	22,670000	55,000000
3,163957	305,107078	179,092	-0,013694	22,650000	55,000000
3,133969	284,264339	180,602	-0,021989	22,660000	55,000000
3,103988	261,369101	182,110	-0,031102	22,660000	55,000000
3,073995	240,815896	183,616	-0,039282	22,670000	55,015000
3,044032	218,818703	185,119	-0,048037	22,670000	55,015000
3,013961	198,889958	186,623	-0,055968	22,670000	54,985000
2,983952	178,944037	188,126	-0,063907	22,670000	54,985000
2,954008	158,857029	189,631	-0,071901	22,660000	54,960000
2,924009	137,756654	191,138	-0,080299	22,660000	54,960000
2,894013	118,184919	192,640	-0,088089	22,660000	54,960000
2,863994	99,918538	194,142	-0,095359	22,670000	55,015000
2,833984	80,621614	195,646	-0,103039	22,650000	55,000000
2,804045	61,182377	197,151	-0,110776	22,650000	55,000000
2,774064	45,459230	198,656	-0,117034	22,650000	55,000000
2,743983	25,962331	200,160	-0,124793	22,660000	55,000000
2,714025	8,634481	201,667	-0,131690	22,660000	55,000000
2,684036	-5,609100	203,171	-0,137359	22,660000	55,000000
2,653988	-19,371761	204,674	-0,142836	22,670000	55,000000
2,624006	-28,538690	206,176	-0,146485	22,650000	55,015000
2,594040	-31,489233	207,678	-0,147659	22,650000	55,040000
2,564061	83,097372	209,184	-0,102054	22,650000	55,040000
2,534046	71,363900	210,690	-0,106724	22,680000	55,005000
2,504089	56,279935	212,192	-0,112727	22,680000	55,005000
2,474046	41,162845	213,695	-0,118744	22,670000	54,985000
2,444076	25,380810	215,201	-0,125025	22,670000	54,985000
2,414026	9,125216	216,711	-0,131495	22,670000	54,985000
2,384028	-5,418940	218,213	-0,137283	22,660000	54,975000
2,354031	-22,721027	219,721	-0,144169	22,660000	54,975000
2,324058	-39,126296	221,225	-0,150699	22,660000	54,975000
2,294024	-53,935449	222,730	-0,156593	22,660000	54,985000
2,263982	-69,692947	224,233	-0,162864	22,680000	54,980000
2,234024	-86,289602	225,738	-0,169470	22,660000	55,000000
2,204068	-101,215305	227,243	-0,175410	22,660000	55,000000
2,174071	-118,043832	228,749	-0,182108	22,670000	55,000000
2,144048	-131,224973	230,253	-0,187354	22,670000	55,000000
2,114086	-144,662522	231,759	-0,192702	22,670000	54,960000
2,084042	-157,777412	233,261	-0,197922	22,670000	54,960000
2,054030	-166,570155	234,763	-0,201421	22,670000	55,000000
2,024023	-175,270886	236,265	-0,204884	22,670000	55,000000
1,994017	-187,163847	237,772	-0,209618	22,670000	54,985000
1,964030	-197,526941	239,275	-0,213742	22,670000	54,985000
1,934038	-206,227672	240,776	-0,217205	22,670000	54,985000
1,904035	-144,206138	242,279	-0,192521	22,660000	54,975000
1,874049	-145,802253	243,782	-0,193156	22,660000	54,975000
1,844085	-148,028963	245,288	-0,194042	22,660000	54,975000
1,814075	-150,056925	246,792	-0,194849	22,680000	55,030000
1,783986	-129,320921	248,295	-0,186596	22,680000	54,965000
1,754029	-0,133725	249,800	-0,135180	22,670000	54,985000
1,724051	0,000000	251,304	-0,135126	22,670000	54,985000
1,694052	0,049073	252,809	-0,135107	22,660000	55,000000
1,664050	0,165623	254,314	-0,135061	22,660000	55,000000
1,634061	-0,083425	255,816	-0,135160	22,660000	55,000000
1,604054	-0,008588	257,322	-0,135130	22,660000	55,000000
1,574055	0,107962	258,825	-0,135083	22,660000	55,025000
1,544111	0,090786	260,333	-0,135090	22,660000	55,025000
1,532044	0,033125	260,933	-0,135113	22,660000	55,025000