File: Nanoindentation Datenauswertung/data/PDMS/AR-PDMS-60-10-60-1,2um-4x4-1
Quasi static measurement routine
Tip parameters (shape,radius, material...)
25.08.2022

Piezo position[nm]	MEMS displ.[nm]	Time[ms]	Cap [pf]	Temp [°C]	Rh [%]
eoh

X-Pos [um]	Y-Pos [um]
19,999520	19,998943

POC
3,159860
2,473773	-0,332473	0,868	-0,135272	17,490000	0,615000
2,489750	-0,307936	1,670	-0,135262	17,490000	0,615000
2,505780	-0,074837	2,472	-0,135169	17,490000	0,615000
2,521766	-0,083425	3,274	-0,135173	17,490000	0,615000
2,537817	-0,158262	4,079	-0,135203	17,490000	0,615000
2,553809	-0,565572	4,880	-0,135365	17,490000	0,615000
2,569747	-0,316524	5,681	-0,135266	17,490000	0,615000
2,585801	-0,407310	6,482	-0,135302	17,490000	0,615000
2,601823	-0,631821	7,286	-0,135391	17,490000	0,615000
2,617777	-0,316524	8,092	-0,135266	17,490000	0,615000
2,633737	-0,490735	8,895	-0,135335	17,490000	0,615000
2,649738	-0,574160	9,699	-0,135368	17,490000	0,615000
2,665733	-0,307936	10,502	-0,135262	17,490000	0,615000
2,681804	-0,607284	11,307	-0,135381	17,490000	0,615000
2,697799	-0,541035	12,108	-0,135355	17,490000	0,615000
2,713771	-0,574160	12,911	-0,135368	17,490000	0,615000
2,729792	-0,689483	13,713	-0,135414	17,490000	0,615000
2,745756	-0,490735	14,516	-0,135335	17,490000	0,615000
2,761841	-0,607284	15,318	-0,135381	17,490000	0,615000
2,777762	-0,590109	16,121	-0,135375	17,490000	0,615000
2,793772	-0,806032	16,924	-0,135460	17,490000	0,615000
2,809785	-0,748371	17,726	-0,135438	17,490000	0,615000
2,825743	-0,981470	18,528	-0,135530	17,490000	0,615000
2,841762	-0,847745	19,328	-0,135477	17,490000	0,615000
2,857731	-0,847745	20,129	-0,135477	17,490000	0,615000
2,873751	-0,889457	20,933	-0,135494	345,100000	0,000000
2,889735	-1,255055	21,736	-0,135639	345,100000	0,000000
2,905768	-0,964294	22,538	-0,135523	345,840000	0,000000
2,921736	-0,988831	23,341	-0,135533	345,840000	0,000000
2,937736	-0,814620	24,143	-0,135464	345,840000	0,000000
2,953689	-1,396141	24,945	-0,135695	345,440000	0,000000
2,969728	-1,803451	25,747	-0,135857	345,440000	0,000000
2,985771	-62,538032	26,549	-0,160030	345,440000	0,000000
3,001733	-56,071372	27,349	-0,157456	345,440000	0,000000
3,017696	-50,587410	28,153	-0,155273	345,440000	0,000000
3,033699	-47,595154	28,955	-0,154083	346,770000	0,000000
3,049692	-41,678117	29,757	-0,151728	346,770000	0,000000
3,065726	-35,884991	30,558	-0,149422	345,980000	0,000000
3,081775	-28,763201	31,360	-0,146587	345,980000	0,000000
3,097692	-22,297768	32,163	-0,144014	345,980000	0,000000
3,113775	-16,048259	32,966	-0,141527	345,980000	0,000000
3,129673	-9,682200	33,769	-0,138993	345,980000	0,000000
3,145680	-2,884295	34,569	-0,136288	346,770000	0,000000
3,161679	4,329509	35,369	-0,133417	346,770000	0,000000
3,177719	11,692986	36,170	-0,130486	346,770000	0,000000
3,193710	19,413474	36,971	-0,127413	345,440000	0,000000
3,209744	27,607520	37,772	-0,124152	345,440000	0,000000
3,225727	34,222627	38,574	-0,121519	346,350000	0,000000
3,241724	41,544392	39,374	-0,118605	346,350000	0,000000
3,257709	18,424643	40,174	-0,127807	346,350000	0,000000
3,273677	25,114587	40,978	-0,125144	346,350000	0,000000
3,289728	34,588224	41,780	-0,121374	346,350000	0,000000
3,305655	42,101376	42,582	-0,118383	346,110000	0,000000
3,321704	41,378769	43,384	-0,118671	346,110000	0,000000
3,337685	46,606323	44,187	-0,116590	346,110000	0,000000
3,353696	55,331590	44,989	-0,113118	346,110000	0,000000
3,369642	63,375962	45,790	-0,109916	346,110000	0,000000
3,385698	70,956590	46,590	-0,106899	346,110000	0,000000
3,401715	79,000962	47,394	-0,103697	346,110000	0,000000
3,417643	89,529680	48,197	-0,099507	346,110000	0,000000
3,433699	98,181336	48,999	-0,096063	344,860000	0,000000
3,449625	106,185223	49,799	-0,092878	344,860000	0,000000
3,465653	115,733698	50,601	-0,089078	345,980000	0,000000
3,481674	124,425840	51,404	-0,085618	345,980000	0,000000
3,497681	133,501983	52,206	-0,082006	345,980000	0,000000
3,513601	143,033282	53,009	-0,078212	345,980000	0,000000
3,529634	152,657820	53,810	-0,074382	345,980000	0,000000
3,545673	161,798985	54,610	-0,070744	345,980000	0,000000
3,561675	172,952163	55,411	-0,066305	345,980000	0,000000
3,577624	181,861456	56,213	-0,062759	345,980000	0,000000
3,593627	191,335093	57,014	-0,058988	345,980000	0,000000
3,609629	201,349766	57,817	-0,055002	345,980000	0,000000
3,625588	210,607481	58,619	-0,051318	345,840000	0,000000
3,641598	219,940032	59,420	-0,047604	345,840000	0,000000
3,657649	229,679894	60,221	-0,043727	345,840000	0,000000
3,659601	231,368022	61,021	-0,043055	345,840000	0,000000
3,659634	230,593887	61,824	-0,043363	345,840000	0,000000
3,659641	229,987830	62,625	-0,043604	346,560000	0,000000
3,659603	229,597696	63,427	-0,043760	346,560000	0,000000
3,659572	229,713018	64,230	-0,043714	346,560000	0,000000
3,659606	229,322884	65,030	-0,043869	0,000000	0,670000
3,659644	228,965874	65,832	-0,044011	0,000000	0,670000
3,659643	228,459190	66,632	-0,044213	0,000000	1,080000
3,659610	228,358590	67,432	-0,044253	0,000000	1,080000
3,659580	228,334053	68,232	-0,044263	0,000000	1,080000
3,659664	228,208916	69,034	-0,044312	0,000000	0,500000
3,659613	228,059242	69,834	-0,044372	0,000000	0,500000
3,653675	225,143049	70,636	-0,045533	0,000000	0,500000
3,637666	213,972696	71,437	-0,049979	0,000000	0,500000
3,621602	203,518815	72,238	-0,054139	0,000000	0,500000
3,605574	192,880908	73,041	-0,058373	0,000000	0,290000
3,589650	182,650312	73,843	-0,062445	0,000000	0,290000
3,573626	171,214962	74,646	-0,066996	0,000000	0,670000
3,557650	161,807573	75,447	-0,070740	0,000000	0,670000
3,541634	151,526676	76,250	-0,074832	0,000000	0,670000
3,525631	141,321844	77,052	-0,078894	0,000000	0,670000
3,509650	129,994455	77,856	-0,083402	0,000000	0,670000
3,493619	120,246005	78,658	-0,087282	0,000000	0,670000
3,477647	111,337940	79,459	-0,090827	0,000000	0,670000
3,461614	99,976199	80,262	-0,095349	0,000000	0,670000
3,445621	91,325769	81,065	-0,098792	363,710000	156,715000
3,429646	80,554138	81,868	-0,103079	363,710000	156,715000
3,413635	70,457267	82,669	-0,107098	363,710000	156,715000
3,397715	60,517431	83,471	-0,111054	363,710000	156,715000
3,381688	51,127218	84,274	-0,114791	363,710000	156,715000
3,365672	42,035127	85,077	-0,118410	363,710000	156,715000
3,349666	33,009285	85,879	-0,122002	363,710000	156,715000
3,333709	23,194586	86,680	-0,125908	363,710000	156,715000
3,317726	12,806955	87,480	-0,130042	363,710000	156,715000
3,301699	4,903669	88,281	-0,133188	363,710000	156,715000
3,285709	-4,287796	89,081	-0,136846	363,710000	156,715000
3,269705	-13,637524	89,883	-0,140567	363,710000	156,715000
3,253674	-22,438854	90,685	-0,144070	363,710000	156,715000
3,237679	-32,552901	91,490	-0,148096	363,710000	156,715000
3,221683	-41,620456	92,293	-0,151705	363,710000	156,715000
3,205675	-49,847627	93,094	-0,154979	363,710000	156,715000
3,189743	-58,158223	93,897	-0,158287	363,710000	156,715000
3,173718	-66,343681	94,699	-0,161544	363,710000	156,715000
3,157733	-75,634520	95,502	-0,165242	363,710000	156,715000
3,141667	-83,497321	96,304	-0,168372	363,710000	156,715000
3,125728	-90,535686	97,104	-0,171173	363,710000	156,715000
3,109782	-96,668646	97,906	-0,173614	363,710000	156,715000
3,093720	-103,882449	98,710	-0,176485	363,710000	156,715000
3,077716	-110,347882	99,511	-0,179058	363,710000	156,715000
3,061805	-113,938835	100,311	-0,180487	363,710000	156,715000
3,045721	-117,437775	101,112	-0,181880	363,710000	156,715000
3,029747	-125,358236	101,915	-0,185032	363,710000	156,715000
3,013762	-132,645650	102,716	-0,187933	363,710000	156,715000
2,997714	-140,440974	103,519	-0,191035	363,710000	156,715000
2,981742	-147,646190	104,322	-0,193903	363,710000	156,715000
2,965735	-154,752032	105,124	-0,196731	363,710000	156,715000
2,949757	-161,849285	105,926	-0,199556	363,710000	156,715000
2,933736	-169,096213	106,730	-0,202440	363,710000	156,715000
2,917781	-176,176292	107,532	-0,205258	363,710000	156,715000
2,901727	-184,512651	108,334	-0,208576	363,710000	156,715000
2,885763	-191,327732	109,138	-0,211288	363,710000	156,715000
2,869737	-196,587184	109,941	-0,213381	363,710000	156,715000
2,853735	-200,817319	110,742	-0,215065	363,710000	156,715000
2,837755	-201,532565	111,545	-0,215350	363,710000	156,715000
2,821727	-144,663748	112,348	-0,192716	363,710000	156,715000
2,805739	-141,845703	113,149	-0,191594	363,710000	156,715000
2,789721	-144,081001	113,950	-0,192484	363,710000	156,715000
2,773753	-146,615647	114,752	-0,193493	363,710000	156,715000
2,757775	-148,361436	115,553	-0,194188	363,710000	156,715000
2,741740	-148,777334	116,354	-0,194353	363,710000	156,715000
2,725764	-150,339098	117,157	-0,194975	363,710000	156,715000
2,709755	-150,314561	117,958	-0,194965	363,710000	156,715000
2,693757	-142,385512	118,760	-0,191809	363,710000	156,715000
2,677780	-112,842042	119,561	-0,180051	363,710000	156,715000
2,661767	-1,404729	120,362	-0,135699	363,710000	156,715000
2,645779	-0,955706	121,164	-0,135520	363,710000	156,715000
2,629762	-1,063668	121,965	-0,135563	363,710000	156,715000
2,613709	-0,939757	122,767	-0,135514	363,710000	156,715000
2,597777	-0,964294	123,569	-0,135523	363,710000	156,715000
2,581802	-0,898045	124,372	-0,135497	363,710000	156,715000
2,565760	-0,641636	125,174	-0,135395	363,710000	156,715000
2,549757	-0,790083	125,976	-0,135454	363,710000	156,715000
2,533756	-0,856332	126,778	-0,135480	363,710000	156,715000
2,517773	-0,955706	127,579	-0,135520	363,710000	156,715000
2,501824	-0,731195	128,382	-0,135431	363,710000	156,715000
2,485823	-0,731195	129,182	-0,135431	363,710000	156,715000
2,469801	-0,623233	129,984	-0,135388	363,710000	156,715000
2,459747	-0,880869	130,485	-0,135490	363,710000	156,715000

X-Pos [um]	Y-Pos [um]
19,999570	25,004674

POC
3,175349
2,489276	0,074837	0,902	-0,135272	363,710000	156,715000
2,505215	0,074837	1,707	-0,135272	363,710000	156,715000
2,521302	-0,208562	2,510	-0,135385	363,710000	156,715000
2,537310	-0,349649	3,314	-0,135441	363,710000	156,715000
2,553288	0,008588	4,116	-0,135298	363,710000	156,715000
2,569290	-0,307936	4,917	-0,135424	363,710000	156,715000
2,585253	-0,290760	5,718	-0,135417	363,710000	156,715000
2,601247	-0,307936	6,521	-0,135424	363,710000	156,715000
2,617295	-0,215923	7,323	-0,135388	363,710000	156,715000
2,633252	-0,299348	8,123	-0,135421	363,710000	156,715000
2,649261	-0,158262	8,924	-0,135365	363,710000	156,715000
2,665271	-0,391361	9,726	-0,135458	363,710000	156,715000
2,681205	-0,382773	10,527	-0,135454	363,710000	156,715000
2,697241	-0,457610	11,329	-0,135484	363,710000	156,715000
2,713237	-0,565572	12,130	-0,135527	363,710000	156,715000
2,729251	-0,440435	12,930	-0,135477	363,710000	156,715000
2,745297	-0,249048	13,731	-0,135401	363,710000	156,715000
2,761256	-0,506684	14,532	-0,135503	363,710000	156,715000
2,777292	-0,457610	15,334	-0,135484	363,710000	156,715000
2,793247	-0,556984	16,138	-0,135523	363,710000	156,715000
2,809215	-0,806032	16,940	-0,135623	363,710000	156,715000
2,825273	-0,473559	17,741	-0,135490	363,710000	156,715000
2,841289	-0,755732	18,541	-0,135603	363,710000	156,715000
2,857196	-1,063668	19,344	-0,135725	363,710000	156,715000
2,873271	-0,880869	20,147	-0,135652	363,710000	156,715000
2,889238	-0,814620	20,949	-0,135626	363,710000	156,715000
2,905270	-0,623233	21,750	-0,135550	363,710000	156,715000
2,921311	-0,955706	22,550	-0,135682	363,710000	156,715000
2,937235	-0,988831	23,354	-0,135695	363,710000	156,715000
2,953206	-1,047719	24,155	-0,135719	363,710000	156,715000
2,969194	-1,288179	24,958	-0,135814	363,710000	156,715000
2,985196	-70,224168	25,759	-0,163251	363,710000	156,715000
3,001237	-66,892078	26,560	-0,161925	363,710000	156,715000
3,017326	-63,044716	27,361	-0,160394	363,710000	156,715000
3,033233	-57,143628	28,161	-0,158045	363,710000	156,715000
3,049217	-50,960368	28,963	-0,155584	363,710000	156,715000
3,065263	-44,835996	29,766	-0,153146	363,710000	156,715000
3,081155	-38,353388	30,569	-0,150566	363,710000	156,715000
3,097251	-31,962792	31,371	-0,148023	363,710000	156,715000
3,113278	-24,466817	32,171	-0,145040	363,710000	156,715000
3,129217	-17,161000	32,972	-0,142132	363,710000	156,715000
3,145220	-10,206060	33,775	-0,139364	363,710000	156,715000
3,161235	-2,708857	34,582	-0,136380	363,710000	156,715000
3,177237	3,490352	35,383	-0,133913	363,710000	156,715000
3,193227	10,603555	36,185	-0,131082	363,710000	156,715000
3,209219	18,000157	36,989	-0,128138	363,710000	156,715000
3,225192	26,112005	37,791	-0,124909	363,710000	156,715000
3,241182	19,563148	38,594	-0,127516	363,710000	156,715000
3,257217	8,700730	39,398	-0,131839	363,710000	156,715000
3,273232	15,548936	40,200	-0,129113	363,710000	156,715000
3,289191	13,811734	41,001	-0,129805	363,710000	156,715000
3,305187	18,656515	41,804	-0,127876	363,710000	156,715000
3,321188	26,211379	42,606	-0,124870	363,710000	156,715000
3,337210	36,459151	43,408	-0,120791	363,710000	156,715000
3,353214	44,620073	44,211	-0,117543	363,710000	156,715000
3,369136	53,719525	45,012	-0,113921	363,710000	156,715000
3,385194	62,496319	45,812	-0,110428	363,710000	156,715000
3,401140	70,199631	46,613	-0,107362	363,710000	156,715000
3,417170	79,906368	47,414	-0,103499	363,710000	156,715000
3,433155	90,029002	48,217	-0,099470	363,710000	156,715000
3,449149	98,388672	49,017	-0,096143	363,710000	156,715000
3,465124	107,322501	49,819	-0,092587	363,710000	156,715000
3,481185	117,911334	50,621	-0,088373	363,710000	156,715000
3,497155	127,733394	51,422	-0,084464	363,710000	156,715000
3,513133	135,961791	52,224	-0,081189	363,710000	156,715000
3,529151	146,665947	53,028	-0,076929	363,710000	156,715000
3,545163	154,893118	53,830	-0,073654	363,710000	156,715000
3,561159	165,273388	54,631	-0,069523	363,710000	156,715000
3,577134	174,439090	55,435	-0,065875	363,710000	156,715000
3,593100	184,163003	56,239	-0,062005	363,710000	156,715000
3,609194	193,761778	57,039	-0,058185	363,710000	156,715000
3,625075	203,501639	57,840	-0,054308	363,710000	156,715000
3,641129	214,804491	58,642	-0,049810	363,710000	156,715000
3,657098	224,319841	59,443	-0,046022	363,710000	156,715000
3,673088	233,586144	60,243	-0,042334	363,710000	156,715000
3,675084	234,658399	61,044	-0,041908	363,710000	156,715000
3,675161	233,960329	61,845	-0,042186	363,710000	156,715000
3,675113	233,768942	62,645	-0,042262	363,710000	156,715000
3,674990	233,138348	63,447	-0,042513	363,710000	156,715000
3,675080	233,088048	64,250	-0,042533	363,710000	156,715000
3,675076	232,980086	65,052	-0,042576	363,710000	156,715000
3,675096	232,372802	65,854	-0,042817	363,710000	156,715000
3,675129	232,240303	66,656	-0,042870	363,710000	156,715000
3,675079	231,725031	67,458	-0,043075	363,710000	156,715000
3,675125	231,550821	68,259	-0,043145	363,710000	156,715000
3,675155	231,766744	69,062	-0,043059	363,710000	156,715000
3,675129	231,475983	69,862	-0,043174	363,710000	156,715000
3,669128	227,378347	70,664	-0,044805	363,710000	156,715000
3,653093	217,398025	71,465	-0,048777	363,710000	156,715000
3,637059	206,734355	72,268	-0,053021	363,710000	156,715000
3,621144	194,684359	73,071	-0,057817	363,710000	156,715000
3,605085	185,310095	73,876	-0,061548	363,710000	156,715000
3,589112	173,599933	74,677	-0,066209	363,710000	156,715000
3,573135	164,691868	75,482	-0,069754	363,710000	156,715000
3,557129	153,164504	76,283	-0,074342	363,710000	156,715000
3,541096	144,173014	77,084	-0,077921	363,710000	156,715000
3,525151	132,986711	77,887	-0,082373	363,710000	156,715000
3,509120	122,523015	78,689	-0,086538	363,710000	156,715000
3,493175	114,021033	79,491	-0,089921	363,710000	156,715000
3,477127	104,148673	80,292	-0,093851	363,710000	156,715000
3,461148	93,893540	81,092	-0,097932	363,710000	156,715000
3,445131	83,962292	81,894	-0,101885	363,710000	156,715000
3,429160	74,346341	82,695	-0,105712	363,710000	156,715000
3,413092	62,961291	83,498	-0,110243	363,710000	156,715000
3,397139	53,030043	84,301	-0,114196	363,710000	156,715000
3,381158	43,622654	85,101	-0,117940	363,710000	156,715000
3,365124	33,607981	85,904	-0,121926	363,710000	156,715000
3,349127	24,890075	86,705	-0,125396	363,710000	156,715000
3,333135	14,393255	87,509	-0,129573	363,710000	156,715000
3,317177	5,018991	88,310	-0,133304	363,710000	156,715000
3,301155	-4,604320	89,113	-0,137134	363,710000	156,715000
3,285182	-14,077958	89,915	-0,140905	363,710000	156,715000
3,269109	-23,477986	90,718	-0,144646	363,710000	156,715000
3,253152	-32,453527	91,521	-0,148218	363,710000	156,715000
3,237148	-40,988635	92,323	-0,151615	363,710000	156,715000
3,221156	-50,620534	93,128	-0,155449	363,710000	156,715000
3,205162	-59,861073	93,931	-0,159126	363,710000	156,715000
3,189208	-67,158301	94,732	-0,162031	363,710000	156,715000
3,173262	-77,571696	95,533	-0,166175	363,710000	156,715000
3,157186	-84,843161	96,338	-0,169069	363,710000	156,715000
3,141198	-93,287482	97,140	-0,172430	363,710000	156,715000
3,125246	-101,248430	97,942	-0,175599	363,710000	156,715000
3,109177	-110,589569	98,743	-0,179316	363,710000	156,715000
3,093196	-118,376305	99,545	-0,182416	363,710000	156,715000
3,077224	-125,748371	100,347	-0,185350	363,710000	156,715000
3,061190	-132,969535	101,151	-0,188224	363,710000	156,715000
3,045191	-137,049996	101,951	-0,189848	363,710000	156,715000
3,029199	-140,599236	102,754	-0,191260	363,710000	156,715000
3,013196	-144,155838	103,557	-0,192676	363,710000	156,715000
2,997201	-149,881488	104,360	-0,194955	363,710000	156,715000
2,981199	-157,170128	105,162	-0,197855	363,710000	156,715000
2,965200	-165,032928	105,964	-0,200985	363,710000	156,715000
[...]
2,451703	-0,257636	5,657	-0,135503	0,000000	0,000000
2,467729	-0,523860	6,460	-0,135609	0,000000	0,000000
2,483736	-0,175438	7,261	-0,135471	0,000000	0,000000
2,499750	-0,499323	8,066	-0,135600	0,000000	0,000000
2,515772	-0,482147	8,869	-0,135593	0,000000	0,000000
2,531766	-0,257636	9,670	-0,135503	0,000000	0,000000
2,547737	-0,399949	10,472	-0,135560	0,000000	0,000000
2,563708	-0,556984	11,275	-0,135623	0,000000	0,000000
2,579740	-0,266224	12,076	-0,135507	0,000000	0,000000
2,595707	-0,673534	12,878	-0,135669	0,000000	0,000000
2,611707	-0,490735	13,679	-0,135596	0,000000	0,000000
2,627746	-0,664946	14,481	-0,135666	0,000000	0,000000
2,643680	-0,664946	15,282	-0,135666	0,000000	0,000000
2,659679	-0,325112	16,084	-0,135530	0,000000	0,000000
2,675721	-0,706658	16,889	-0,135682	0,000000	0,000000
2,691790	-0,574160	17,692	-0,135629	0,000000	0,000000
2,707729	-0,541035	18,495	-0,135616	0,000000	0,000000
2,723759	-1,138505	19,297	-0,135854	0,000000	0,000000
2,739695	-0,731195	20,099	-0,135692	0,000000	0,000000
2,755716	-1,039131	20,903	-0,135814	0,000000	0,000000
2,771671	-0,880869	21,706	-0,135751	0,000000	0,000000
2,787651	-1,122556	22,508	-0,135848	0,000000	0,000000
2,803710	-1,129917	23,309	-0,135851	0,000000	0,000000
2,819655	-1,347067	24,109	-0,135937	0,000000	0,000000
2,835728	-1,197393	24,910	-0,135877	0,000000	0,000000
2,851711	-1,554403	25,714	-0,136020	0,000000	0,000000
2,867714	-68,529905	26,518	-0,162676	0,000000	0,000000
2,883685	-62,687706	27,321	-0,160351	0,000000	0,000000
2,899747	-56,920344	28,123	-0,158055	0,000000	0,000000
2,915735	-51,078145	28,924	-0,155730	0,000000	0,000000
2,931654	-45,201594	29,730	-0,153391	0,000000	0,000000
2,947690	-38,412276	30,531	-0,150689	0,000000	0,000000
2,963631	-31,912492	31,331	-0,148102	0,000000	0,000000
2,979706	-25,140350	32,133	-0,145407	0,000000	0,000000
2,995708	-17,419863	32,934	-0,142334	0,000000	0,000000
3,011689	-11,485651	33,737	-0,139972	0,000000	0,000000
3,027687	-3,141930	34,538	-0,136651	0,000000	0,000000
3,043687	3,440052	35,340	-0,134032	0,000000	0,000000
3,059758	11,193664	36,146	-0,130946	0,000000	0,000000
3,075664	17,484885	36,950	-0,128442	0,000000	0,000000
3,091698	24,108580	37,754	-0,125806	0,000000	0,000000
3,107651	32,676812	38,554	-0,122396	0,000000	0,000000
3,123634	38,469938	39,356	-0,120090	0,000000	0,000000
3,139658	46,032163	40,158	-0,117080	0,000000	0,000000
3,155685	53,087704	40,964	-0,114272	0,000000	0,000000
3,171677	48,192623	41,768	-0,116220	0,000000	0,000000
3,187640	38,536187	42,572	-0,120063	0,000000	0,000000
3,203645	37,513004	43,373	-0,120471	0,000000	0,000000
3,219701	43,039907	44,173	-0,118271	0,000000	0,000000
3,235657	49,912649	44,974	-0,115536	0,000000	0,000000
3,251652	57,143628	45,778	-0,112658	0,000000	0,000000
3,267665	66,011208	46,581	-0,109128	0,000000	0,000000
3,283621	75,360936	47,383	-0,105407	0,000000	0,000000
3,299642	84,127915	48,185	-0,101918	0,000000	0,000000
3,315618	93,810115	48,987	-0,098064	0,000000	0,000000
3,331629	103,957286	49,788	-0,094026	0,000000	0,000000
3,347635	112,807691	50,590	-0,090503	0,000000	0,000000
3,363594	122,523015	51,392	-0,086637	0,000000	0,000000
3,379628	130,899861	52,193	-0,083303	0,000000	0,000000
3,395613	140,241000	52,997	-0,079585	0,000000	0,000000
3,411596	149,498714	53,800	-0,075900	0,000000	0,000000
3,427618	160,220046	54,601	-0,071633	0,000000	0,000000
3,443638	169,768520	55,403	-0,067833	0,000000	0,000000
3,459563	178,578439	56,205	-0,064327	0,000000	0,000000
3,475590	188,276588	57,007	-0,060467	0,000000	0,000000
3,491637	197,077919	57,808	-0,056964	0,000000	0,000000
3,507599	208,180797	58,611	-0,052545	0,000000	0,000000
3,523549	216,764977	59,411	-0,049128	0,000000	0,000000
3,539584	226,206717	60,213	-0,045371	0,000000	0,000000
3,541573	227,577094	61,015	-0,044825	0,000000	0,000000
3,541579	227,411471	61,819	-0,044891	0,000000	0,000000
3,541617	227,078999	62,619	-0,045023	0,000000	0,000000
3,541534	226,463126	63,419	-0,045269	0,000000	0,000000
3,541551	226,081580	64,221	-0,045420	0,000000	0,000000
3,541602	225,790819	65,025	-0,045536	0,000000	0,000000
3,541562	225,674270	65,828	-0,045583	0,000000	0,000000
3,541545	225,491471	66,629	-0,045655	0,000000	0,000000
3,541568	225,176174	67,429	-0,045781	0,000000	0,000000
3,541508	225,009324	68,230	-0,045847	0,000000	0,000000
3,541594	224,676851	69,032	-0,045979	0,000000	0,000000
3,541573	224,709976	69,834	-0,045966	0,000000	0,000000
3,535533	221,344761	70,637	-0,047306	0,000000	0,000000
3,519538	210,116746	71,439	-0,051774	0,000000	0,000000
3,503531	198,980744	72,241	-0,056207	0,000000	0,000000
3,487589	189,472754	73,042	-0,059991	0,000000	0,000000
3,471621	179,351347	73,846	-0,064019	0,000000	0,000000
3,455599	168,779689	74,648	-0,068227	0,000000	0,000000
3,439598	157,070754	75,452	-0,072887	0,000000	0,000000
3,423550	148,742982	76,257	-0,076201	0,000000	0,000000
3,407644	138,138201	77,061	-0,080422	0,000000	0,000000
3,391556	128,573777	77,865	-0,084229	0,000000	0,000000
3,375588	117,104075	78,668	-0,088793	0,000000	0,000000
3,359639	108,137121	79,470	-0,092362	0,000000	0,000000
3,343631	97,932288	80,273	-0,096424	0,000000	0,000000
3,327615	88,948159	81,073	-0,100000	0,000000	0,000000
3,311647	78,468514	81,876	-0,104170	0,000000	0,000000
3,295602	69,609522	82,677	-0,107696	0,000000	0,000000
3,279685	58,249009	83,480	-0,112218	0,000000	0,000000
3,263587	50,170285	84,282	-0,115433	0,000000	0,000000
3,247629	41,103957	85,083	-0,119042	0,000000	0,000000
3,231606	30,316377	85,884	-0,123335	0,000000	0,000000
3,215681	21,432848	86,686	-0,126871	0,000000	0,000000
3,199666	12,166546	87,490	-0,130559	0,000000	0,000000
3,183661	1,213342	88,290	-0,134918	0,000000	0,000000
3,167625	-6,832257	89,092	-0,138120	0,000000	0,000000
3,151646	-17,045678	89,893	-0,142185	0,000000	0,000000
3,135676	-25,156299	90,695	-0,145413	0,000000	0,000000
3,119690	-34,464314	91,498	-0,149118	0,000000	0,000000
3,103691	-43,739204	92,298	-0,152809	0,000000	0,000000
3,087655	-52,107461	93,102	-0,156140	0,000000	0,000000
3,071655	-62,254633	93,905	-0,160178	0,000000	0,000000
3,055671	-69,701535	94,708	-0,163142	0,000000	0,000000
3,039655	-77,422022	95,508	-0,166215	0,000000	0,000000
3,023660	-85,267647	96,310	-0,169337	0,000000	0,000000
3,007664	-94,633323	97,110	-0,173065	0,000000	0,000000
2,991727	-101,131880	97,911	-0,175651	0,000000	0,000000
2,975627	-109,651038	98,712	-0,179042	0,000000	0,000000
2,959663	-114,229595	99,516	-0,180864	0,000000	0,000000
2,943670	-119,415437	100,320	-0,182928	0,000000	0,000000
2,927665	-124,028345	101,120	-0,184764	0,000000	0,000000
2,911626	-128,324729	101,924	-0,186474	0,000000	0,000000
2,895686	-135,488232	102,726	-0,189325	0,000000	0,000000
2,879711	-143,890841	103,528	-0,192669	0,000000	0,000000
2,863665	-151,162306	104,328	-0,195563	0,000000	0,000000
2,847660	-158,358933	105,130	-0,198428	0,000000	0,000000
2,831687	-164,583906	105,930	-0,200905	0,000000	0,000000
2,815672	-171,465236	106,733	-0,203644	0,000000	0,000000
2,799693	-178,802950	107,538	-0,206564	0,000000	0,000000
2,783703	-185,235258	108,340	-0,209125	0,000000	0,000000
2,767722	-191,418518	109,142	-0,211585	0,000000	0,000000
2,751681	-197,709740	109,948	-0,214089	0,000000	0,000000
2,735667	-201,490853	110,750	-0,215594	0,000000	0,000000
2,719739	-180,299692	111,551	-0,207160	0,000000	0,000000
2,703676	-146,599698	112,352	-0,193748	2,640000	2,760000
2,687691	-146,375186	113,152	-0,193658	2,640000	2,760000
2,671739	-147,198394	113,956	-0,193986	2,640000	2,760000
2,655680	-149,874126	114,760	-0,195051	2,640000	2,760000
2,639752	-151,686165	115,564	-0,195772	2,640000	2,760000
2,623678	-152,873744	116,368	-0,196245	2,640000	2,760000
2,607725	-154,851405	117,169	-0,197032	2,640000	2,760000
2,591716	-156,115048	117,971	-0,197535	2,640000	2,760000
2,575716	-154,053961	118,772	-0,196714	2,640000	2,760000
2,559671	-0,931170	119,573	-0,135771	2,640000	2,760000
2,543705	-0,889457	120,377	-0,135755	2,640000	2,760000
2,527735	-0,831796	121,178	-0,135732	2,640000	2,760000
2,511714	-0,648997	121,979	-0,135659	2,640000	2,760000
2,495763	-0,689483	122,783	-0,135675	2,640000	2,760000
2,479703	-0,823208	123,587	-0,135729	2,640000	2,760000
2,463736	-0,574160	124,391	-0,135629	2,640000	2,760000
2,447685	-0,532447	125,192	-0,135613	2,640000	2,760000
2,431708	-0,391361	125,995	-0,135557	2,640000	2,760000
2,415720	-0,656358	126,798	-0,135662	2,640000	2,760000
2,399770	-0,556984	127,599	-0,135623	2,640000	2,760000
2,383719	-0,523860	128,401	-0,135609	2,640000	2,760000
2,367742	-0,664946	129,205	-0,135666	2,640000	2,760000
2,351758	-0,506684	130,008	-0,135603	2,640000	2,760000
2,341765	-0,523860	130,509	-0,135609	2,640000	2,760000