File: Nanoindentation Datenauswertung/data/PDMS/EM-PDMS-50-10-50-1um-1
Quasi static measurement routine
Tip parameters (shape,radius, material...)
24.08.2022

Piezo position[nm]	MEMS displ.[nm]	Time[ms]	Cap [pf]	Temp [°C]	Rh [%]
eoh
2,625858	0,092013	0,188	-0,135857	22,720000	52,295000
2,639938	-0,049073	0,889	-0,135914	22,720000	52,295000
2,653906	0,074837	1,589	-0,135864	22,720000	52,295000
2,667866	-0,049073	2,291	-0,135914	22,720000	52,310000
2,681922	-0,073610	2,992	-0,135923	22,720000	52,310000
2,695850	-0,182799	3,692	-0,135967	22,720000	52,310000
2,709859	-0,207336	4,393	-0,135977	22,720000	52,320000
2,723864	-0,240460	5,098	-0,135990	22,720000	52,320000
2,737875	-0,398722	5,800	-0,136053	22,720000	52,320000
2,751841	-0,066249	6,502	-0,135920	22,720000	52,335000
2,765874	-0,007361	7,203	-0,135897	22,720000	52,335000
2,779912	-0,224511	7,906	-0,135983	22,720000	52,335000
2,793849	-0,306709	8,608	-0,136016	22,720000	52,335000
2,807889	-0,365598	9,312	-0,136040	22,720000	52,335000
2,821802	-0,390134	10,013	-0,136049	22,730000	52,325000
2,835837	-0,315297	10,714	-0,136020	22,730000	52,325000
2,849907	-0,190160	11,415	-0,135970	22,730000	52,325000
2,863819	-0,447796	12,119	-0,136072	22,730000	52,325000
2,877892	-0,531221	12,823	-0,136105	22,730000	52,325000
2,891866	-0,207336	13,524	-0,135977	22,730000	52,325000
2,905885	-0,506684	14,227	-0,136096	22,710000	52,335000
2,919863	-0,515272	14,929	-0,136099	22,710000	52,335000
2,933848	-0,423259	15,629	-0,136063	22,710000	52,335000
2,947836	-0,482147	16,331	-0,136086	22,730000	52,340000
2,961835	-0,564345	17,035	-0,136119	22,730000	52,340000
2,975829	-0,564345	17,736	-0,136119	22,730000	52,340000
2,989882	-0,639182	18,439	-0,136148	22,720000	52,285000
3,003840	-0,706658	19,142	-0,136175	22,720000	52,285000
3,017857	-0,971655	19,844	-0,136281	22,720000	52,285000
3,031765	-0,830569	20,546	-0,136225	22,720000	52,285000
3,045833	-0,980243	21,247	-0,136284	22,720000	52,285000
3,059827	-1,147093	21,948	-0,136351	22,720000	52,285000
3,073800	-1,088205	22,651	-0,136327	22,720000	52,285000
3,087809	-1,163042	23,354	-0,136357	22,720000	52,285000
3,101831	-1,304128	24,056	-0,136413	22,730000	52,315000
3,115795	-1,545815	24,758	-0,136509	22,730000	52,315000
3,129779	-1,803451	25,462	-0,136612	22,730000	52,315000
3,143820	-2,426684	26,164	-0,136860	22,720000	52,310000
3,157827	-64,274007	26,868	-0,161475	22,720000	52,310000
3,171792	-61,041290	27,568	-0,160188	22,720000	52,310000
3,185811	-55,714363	28,268	-0,158068	22,720000	52,310000
3,199765	-49,879525	28,969	-0,155746	22,720000	52,310000
3,213805	-44,094987	29,672	-0,153444	22,720000	52,310000
3,227785	-39,607216	30,373	-0,151658	22,720000	52,295000
3,241751	-33,183496	31,077	-0,149101	22,720000	52,295000
3,255781	-27,358472	31,779	-0,146783	22,720000	52,295000
3,269749	-22,662139	32,481	-0,144914	22,730000	52,290000
3,283805	-17,176949	33,186	-0,142730	22,730000	52,290000
3,297824	-9,482226	33,890	-0,139668	22,730000	52,290000
3,311795	-4,752768	34,593	-0,137786	22,730000	52,340000
3,325781	2,626659	35,295	-0,134849	22,730000	52,340000
3,339788	8,343721	35,999	-0,132573	22,730000	52,340000
3,353741	14,403070	36,702	-0,130162	22,730000	52,340000
3,367783	20,353231	37,404	-0,127793	22,730000	52,340000
3,381731	26,951162	38,104	-0,125167	22,720000	52,320000
3,395694	18,341218	38,806	-0,128594	22,720000	52,320000
3,409804	8,336360	39,510	-0,132576	22,720000	52,320000
3,423710	14,112310	40,212	-0,130277	22,720000	52,320000
3,437741	20,685704	40,913	-0,127661	22,720000	52,320000
3,451740	26,818664	41,615	-0,125220	22,720000	52,320000
3,465791	32,603202	42,318	-0,122918	22,710000	52,295000
3,479763	34,272927	43,018	-0,122253	22,710000	52,295000
3,493707	39,026922	43,721	-0,120361	22,710000	52,295000
3,507783	45,817466	44,424	-0,117659	22,730000	52,300000
3,521709	54,310861	45,127	-0,114278	22,730000	52,300000
3,535757	61,100179	45,830	-0,111576	22,730000	52,300000
3,549743	70,025420	46,531	-0,108024	22,710000	52,320000
3,563739	76,574278	47,233	-0,105417	22,710000	52,320000
3,577744	83,920579	47,936	-0,102494	22,710000	52,320000
3,591724	92,290064	48,636	-0,099163	22,710000	52,320000
3,605690	100,035088	49,336	-0,096080	22,710000	52,320000
3,619670	108,213185	50,036	-0,092825	22,720000	52,320000
3,625681	112,018834	50,737	-0,091311	22,720000	52,320000
3,625684	111,404189	51,438	-0,091555	22,720000	52,320000
3,625732	110,747831	52,139	-0,091816	22,730000	52,315000
3,625742	110,074297	52,841	-0,092084	22,730000	52,315000
3,625682	110,107422	53,545	-0,092071	22,730000	52,315000
3,625720	109,442476	54,246	-0,092336	22,730000	52,325000
3,625710	109,534489	54,947	-0,092299	22,730000	52,325000
3,625679	109,102642	55,649	-0,092471	22,730000	52,325000
3,625679	108,986093	56,352	-0,092518	22,730000	52,325000
3,625670	108,819243	57,053	-0,092584	22,730000	52,325000
3,625668	108,495358	57,756	-0,092713	22,730000	52,325000
3,625708	108,263485	58,457	-0,092805	22,720000	52,295000
3,625711	108,221773	59,159	-0,092822	22,720000	52,295000
3,625712	108,096636	59,863	-0,092872	22,720000	52,295000
3,621684	106,608482	60,566	-0,093464	22,730000	52,315000
3,607735	96,934870	61,270	-0,097314	22,730000	52,315000
3,593694	87,852593	61,972	-0,100929	22,730000	52,340000
3,579760	78,967837	62,672	-0,104465	22,730000	52,340000
3,565771	68,437893	63,375	-0,108656	22,730000	52,340000
3,551758	60,285559	64,079	-0,111900	22,720000	52,350000
3,537707	52,166349	64,782	-0,115132	22,720000	52,350000
3,523724	43,432495	65,482	-0,118608	22,720000	52,350000
3,509720	35,120672	66,183	-0,121916	22,730000	52,325000
3,495726	25,347686	66,885	-0,125806	22,730000	52,325000
3,481732	18,483531	67,587	-0,128538	22,730000	52,325000
3,467718	8,677420	68,289	-0,132440	22,710000	52,310000
3,453721	0,948345	68,991	-0,135517	22,710000	52,310000
3,439685	-7,478800	69,694	-0,138871	22,710000	52,310000
3,425776	-15,249588	70,396	-0,141963	22,730000	52,325000
3,411743	-23,619072	71,097	-0,145294	22,730000	52,325000
3,397766	-31,181297	71,798	-0,148304	22,730000	52,325000
3,383751	-40,148251	72,501	-0,151873	22,720000	52,285000
3,369748	-46,679933	73,205	-0,154473	22,720000	52,285000
3,355758	-55,572050	73,908	-0,158012	22,720000	52,285000
3,341794	-63,142863	74,611	-0,161025	22,730000	52,290000
3,327710	-70,681778	75,313	-0,164025	22,730000	52,290000
3,313786	-77,130035	76,013	-0,166592	22,720000	52,310000
3,299724	-83,553755	76,714	-0,169148	22,720000	52,310000
3,285802	-90,078076	77,417	-0,171745	22,720000	52,310000
3,271776	-96,842857	78,119	-0,174437	22,720000	52,310000
3,257811	-101,255791	78,821	-0,176194	22,720000	52,310000
3,243789	-106,392558	79,523	-0,178238	22,720000	52,310000
3,229748	-110,455844	80,224	-0,179855	22,720000	52,310000
3,215759	-114,328969	80,925	-0,181397	22,720000	52,310000
3,201773	-121,708395	81,627	-0,184334	22,720000	52,310000
3,187792	-127,966493	82,330	-0,186825	22,720000	52,310000
3,173789	-134,623312	83,031	-0,189474	22,720000	52,310000
3,159834	-142,576898	83,734	-0,192640	22,720000	52,310000
3,145776	-147,994612	84,436	-0,194796	22,730000	52,325000
3,131794	-154,909067	85,137	-0,197548	22,730000	52,325000
3,117826	-162,770640	85,839	-0,200677	22,730000	52,325000
3,103837	-168,255830	86,540	-0,202860	22,720000	52,295000
3,089760	-176,026617	87,241	-0,205953	22,720000	52,295000
3,075818	-181,927705	87,944	-0,208301	22,720000	52,295000
3,061792	-188,534224	88,647	-0,210931	22,730000	52,290000
3,047852	-194,849982	89,349	-0,213444	22,730000	52,290000
3,033880	-200,933869	90,051	-0,215866	22,720000	52,295000
3,019849	-206,991991	90,753	-0,218277	22,720000	52,295000
3,005773	-212,767941	91,455	-0,220576	22,720000	52,295000
2,991880	-217,571009	92,157	-0,222487	22,710000	52,320000
2,977839	-221,186499	92,858	-0,223926	22,710000	52,320000
2,963852	-172,071294	93,559	-0,204378	22,710000	52,320000
2,949835	-157,328390	94,262	-0,198511	22,730000	52,315000
2,935848	-156,912492	94,963	-0,198345	22,730000	52,315000
2,921832	-159,006703	95,667	-0,199179	22,730000	52,315000
2,907851	-162,563305	96,369	-0,200594	22,730000	52,315000
2,893841	-162,330206	97,069	-0,200501	22,730000	52,315000
2,879802	-163,851484	97,771	-0,201107	22,730000	52,315000
2,865853	-163,959446	98,473	-0,201150	22,730000	52,300000
2,851845	-160,161157	99,174	-0,199638	22,730000	52,300000
2,837783	-149,606676	99,876	-0,195438	22,730000	52,300000
2,823829	-0,548396	100,578	-0,136112	22,720000	52,350000
2,809880	-0,407310	101,282	-0,136056	22,720000	52,350000
2,795858	-0,531221	101,987	-0,136105	22,720000	52,310000
2,781852	-0,390134	102,688	-0,136049	22,720000	52,310000
2,767840	-0,482147	103,390	-0,136086	22,720000	52,310000
2,753863	-0,456383	104,091	-0,136076	22,710000	52,295000
2,739858	-0,531221	104,794	-0,136105	22,710000	52,295000
2,725852	-0,323885	105,495	-0,136023	22,710000	52,295000
2,711904	-0,863693	106,197	-0,136238	22,730000	52,315000
2,697846	-0,456383	106,900	-0,136076	22,730000	52,315000
2,683851	0,025764	107,603	-0,135884	22,730000	52,315000
2,669871	-0,339834	108,305	-0,136029	22,730000	52,325000
2,655814	-0,298121	109,007	-0,136013	22,730000	52,325000
2,641828	-0,215923	109,709	-0,135980	22,730000	52,325000
2,627796	-0,190160	110,413	-0,135970	22,730000	52,315000
2,625871	-0,357010	110,513	-0,136036	22,730000	52,315000