File: Nanoindentation Datenauswertung/data/PDMS/EM-PDMS-125-10-125-2,5um-1
Quasi static measurement routine
Tip parameters (shape,radius, material...)
25.08.2022

Piezo position[nm]	MEMS displ.[nm]	Time[ms]	Cap [pf]	Temp [°C]	Rh [%]
eoh
2,537875	-0,182799	0,257	-0,135672	0,000000	0,000000
2,567911	-0,024537	1,761	-0,135609	0,000000	0,000000
2,597925	-0,107962	3,265	-0,135643	0,000000	0,000000
2,627861	-0,141086	4,770	-0,135656	0,000000	0,000000
2,657854	0,074837	6,275	-0,135570	0,000000	0,000000
2,687893	-0,357010	7,777	-0,135742	0,000000	0,000000
2,717931	-0,315297	9,281	-0,135725	0,000000	0,000000
2,747890	-0,556984	10,788	-0,135821	0,000000	0,000000
2,777873	-0,581521	12,293	-0,135831	0,000000	0,000000
2,807883	-0,630594	13,797	-0,135851	0,000000	0,000000
2,837936	-0,747144	15,300	-0,135897	0,000000	0,000000
2,867847	-0,672307	16,806	-0,135867	0,000000	0,000000
2,897898	-1,396141	18,313	-0,136155	0,000000	0,000000
2,927884	-1,204754	19,814	-0,136079	0,000000	0,000000
2,957862	-1,370377	21,319	-0,136145	0,000000	0,000000
2,987875	-1,561764	22,824	-0,136221	0,000000	0,000000
3,017894	-2,043911	24,328	-0,136413	0,000000	0,000000
3,047876	-2,384972	25,831	-0,136549	0,000000	0,000000
3,077805	-68,911452	27,334	-0,163026	0,000000	0,000000
3,107820	-59,445175	28,842	-0,159259	0,000000	0,000000
3,137836	-48,384010	30,343	-0,154856	0,000000	0,000000
3,167859	-36,849285	31,845	-0,150266	0,000000	0,000000
3,197775	-24,158880	33,351	-0,145215	0,000000	0,000000
3,227786	-11,734699	34,853	-0,140270	0,000000	0,000000
3,257863	1,670952	36,356	-0,134935	0,000000	0,000000
3,287880	14,070597	37,862	-0,130000	0,000000	0,000000
3,317816	27,948581	39,364	-0,124476	0,000000	0,000000
3,347834	10,106686	40,864	-0,131577	0,000000	0,000000
3,377825	25,072874	42,367	-0,125621	0,000000	0,000000
3,407818	36,500864	43,871	-0,121072	0,000000	0,000000
3,437879	45,392981	45,375	-0,117533	0,000000	0,000000
3,467763	58,398683	46,881	-0,112357	0,000000	0,000000
3,497830	76,516616	48,383	-0,105146	0,000000	0,000000
3,527788	92,398025	49,884	-0,098825	0,000000	0,000000
3,557813	110,140546	51,385	-0,091764	0,000000	0,000000
3,587796	127,792282	52,886	-0,084738	0,000000	0,000000
3,617780	144,904209	54,391	-0,077928	0,000000	0,000000
3,647790	162,397682	55,895	-0,070965	0,000000	0,000000
3,677782	181,337596	57,400	-0,063427	0,000000	0,000000
3,707766	198,299849	58,902	-0,056676	0,000000	0,000000
3,737773	215,719712	60,405	-0,049743	0,000000	0,000000
3,767792	235,166310	61,908	-0,042003	0,000000	0,000000
3,797728	251,845163	63,415	-0,035365	0,000000	0,000000
3,827749	271,491736	64,917	-0,027546	0,000000	0,000000
3,857788	288,452762	66,418	-0,020795	0,000000	0,000000
3,887755	306,462734	67,922	-0,013627	0,000000	0,000000
3,917793	325,153600	69,425	-0,006188	0,000000	0,000000
3,947705	345,406230	70,926	0,001872	0,000000	0,000000
3,977761	362,393020	72,431	0,008633	0,000000	0,000000
4,007801	381,009049	73,932	0,016042	0,000000	0,000000
4,037748	399,524478	75,435	0,023411	0,000000	0,000000
4,067754	418,655779	76,942	0,031025	0,000000	0,000000
4,097745	434,429226	78,444	0,037303	0,000000	0,000000
4,127737	451,873626	79,948	0,044246	0,000000	0,000000
4,157745	470,804952	81,451	0,051781	0,000000	0,000000
4,187760	489,229595	82,956	0,059114	0,000000	0,000000
4,217734	506,249509	84,460	0,065888	0,000000	0,000000
4,247791	525,580785	85,963	0,073582	0,000000	0,000000
4,277726	544,802872	87,467	0,081232	0,000000	0,000000
4,307695	563,302352	88,971	0,088595	0,000000	0,000000
4,337705	581,901205	90,474	0,095997	0,000000	0,000000
4,367680	600,259599	91,977	0,103304	0,000000	0,000000
4,397715	618,068369	93,480	0,110392	0,000000	0,000000
4,427717	637,192309	94,984	0,118003	0,000000	0,000000
4,457696	656,555482	96,485	0,125709	0,000000	0,000000
4,487657	675,204636	97,990	0,133132	0,000000	0,000000
4,517655	693,770365	99,491	0,140521	0,000000	0,000000
4,547636	712,161884	100,994	0,147841	0,000000	0,000000
4,577626	730,744788	102,494	0,155237	0,000000	0,000000
4,607644	749,775489	103,998	0,162811	0,000000	0,000000
4,637680	770,419480	105,505	0,171027	0,000000	0,000000
4,667639	788,619612	107,009	0,178271	0,000000	0,000000
4,697577	808,240421	108,513	0,186080	0,000000	0,000000
4,727665	827,820744	110,023	0,193873	0,000000	0,000000
4,757618	845,688403	111,527	0,200984	0,000000	0,000000
4,787557	865,933672	113,030	0,209042	0,000000	0,000000
4,817577	883,809919	114,537	0,216157	0,000000	0,000000
4,847675	903,813501	116,041	0,224118	0,000000	0,000000
4,877528	922,205019	117,547	0,231438	0,000000	0,000000
4,907551	943,263682	119,052	0,239819	0,000000	0,000000
4,937540	960,790280	120,556	0,246795	0,000000	0,000000
4,967498	899,823826	122,062	0,222530	0,000000	0,000000
4,997477	916,860916	123,565	0,229311	0,000000	0,000000
5,027544	936,523437	125,068	0,237137	0,000000	0,000000
5,037552	942,972921	126,571	0,239704	0,000000	0,000000
5,037538	940,621074	128,077	0,238768	0,000000	0,000000
5,037527	938,859336	129,584	0,238066	0,000000	0,000000
5,037503	937,687706	131,085	0,237600	0,000000	0,000000
5,037483	936,340639	132,589	0,237064	0,000000	0,000000
5,037550	935,633980	134,094	0,236783	0,000000	0,000000
5,037478	934,786236	135,598	0,236445	0,000000	0,000000
5,007531	910,545157	137,104	0,226797	0,000000	0,000000
4,977555	884,158341	138,608	0,216295	0,000000	0,000000
4,947560	858,288022	140,111	0,205999	0,000000	0,000000
4,917518	833,488733	141,614	0,196129	0,000000	0,000000
4,887564	810,684281	143,118	0,187053	0,000000	0,000000
4,857547	785,693605	144,624	0,177106	0,000000	0,000000
4,827584	762,000923	146,126	0,167677	0,000000	0,000000
4,797579	737,924240	147,629	0,158094	0,000000	0,000000
4,767613	714,007047	149,136	0,148575	0,000000	0,000000
4,737675	690,264064	150,641	0,139125	0,000000	0,000000
4,707614	666,802028	152,145	0,129788	0,000000	0,000000
4,677639	643,449179	153,648	0,120493	0,000000	0,000000
4,647578	618,908753	155,150	0,110726	0,000000	0,000000
4,617606	596,826908	156,655	0,101938	0,000000	0,000000
4,587643	574,845664	158,161	0,093189	0,000000	0,000000
4,557627	550,437736	159,667	0,083475	0,000000	0,000000
4,527628	528,754613	161,173	0,074845	0,000000	0,000000
4,497613	507,180679	162,675	0,066258	0,000000	0,000000
4,467665	483,519894	164,177	0,056841	0,000000	0,000000
4,437694	461,662561	165,682	0,048142	0,000000	0,000000
4,407705	441,011208	167,185	0,039923	0,000000	0,000000
4,377714	419,702271	168,688	0,031442	0,000000	0,000000
4,347711	398,037551	170,194	0,022819	0,000000	0,000000
4,317706	374,717827	171,699	0,013538	0,000000	0,000000
4,287747	354,439433	173,203	0,005467	0,000000	0,000000
4,257747	334,502100	174,708	-0,002468	0,000000	0,000000
4,227766	312,346645	176,213	-0,011286	0,000000	0,000000
4,197721	292,010590	177,718	-0,019379	0,000000	0,000000
4,167722	273,053500	179,220	-0,026924	0,000000	0,000000
4,137722	253,897662	180,722	-0,034548	0,000000	0,000000
4,107691	235,390821	182,227	-0,041914	0,000000	0,000000
4,077755	216,176095	183,733	-0,049562	0,000000	0,000000
4,047795	195,822864	185,233	-0,057662	0,000000	0,000000
4,017732	177,723333	186,737	-0,064866	0,000000	0,000000
3,987816	159,913336	188,241	-0,071954	0,000000	0,000000
3,957722	142,452988	189,744	-0,078903	0,000000	0,000000
3,927777	124,768128	191,247	-0,085942	0,000000	0,000000
3,897690	115,268726	192,753	-0,089723	0,000000	0,000000
3,867782	110,996879	194,258	-0,091423	0,000000	0,000000
3,837788	222,392480	195,763	-0,047087	0,000000	0,000000
3,807782	210,708081	197,265	-0,051738	0,000000	0,000000
3,777812	194,120014	198,767	-0,058340	0,000000	0,000000
3,747757	176,135806	200,273	-0,065498	0,000000	0,000000
3,717777	159,805375	201,775	-0,071997	0,000000	0,000000
3,687790	142,360975	203,276	-0,078940	0,000000	0,000000
3,657777	123,678696	204,781	-0,086375	0,000000	0,000000
3,627779	107,805875	206,284	-0,092693	0,000000	0,000000
3,597822	90,203213	207,788	-0,099699	0,000000	0,000000
3,567782	72,775989	209,295	-0,106635	0,000000	0,000000
3,537889	56,513034	210,798	-0,113107	0,000000	0,000000
3,507823	40,672111	212,302	-0,119412	0,000000	0,000000
3,477820	23,843583	213,804	-0,126110	0,000000	0,000000
3,447778	6,889918	215,308	-0,132857	0,000000	0,000000
3,417860	-10,046571	216,811	-0,139598	0,000000	0,000000
3,387841	-27,224747	218,315	-0,146435	0,000000	0,000000
3,357844	-44,104801	219,817	-0,153153	0,000000	0,000000
3,327878	-60,517431	221,322	-0,159686	0,000000	0,000000
3,297905	-78,194930	222,825	-0,166721	0,000000	0,000000
3,267867	-92,671610	224,332	-0,172483	0,000000	0,000000
3,237840	-107,996035	225,836	-0,178582	0,000000	0,000000
3,207843	-119,830108	227,339	-0,183292	0,000000	0,000000
3,177883	-129,021573	228,844	-0,186950	0,000000	0,000000
3,147922	-136,576437	230,347	-0,189957	0,000000	0,000000
3,117928	-149,299967	231,853	-0,195021	0,000000	0,000000
3,087886	-164,425644	233,355	-0,201041	0,000000	0,000000
3,057913	-178,104880	234,859	-0,206485	0,000000	0,000000
3,027888	-190,304550	236,363	-0,211341	0,000000	0,000000
2,997906	-203,742099	237,868	-0,216689	0,000000	0,000000
2,967889	-216,641067	239,370	-0,221823	0,000000	0,000000
2,937904	-223,289298	240,873	-0,224469	0,000000	0,000000
2,907885	-158,050997	242,376	-0,198504	0,000000	0,000000
2,877913	-159,912109	243,880	-0,199245	0,000000	0,000000
2,847887	-162,347381	245,386	-0,200214	0,000000	0,000000
2,817919	-162,954666	246,887	-0,200456	0,000000	0,000000
2,787932	-0,698070	248,394	-0,135877	0,000000	0,000000
2,757944	-0,755732	249,898	-0,135900	0,000000	0,000000
2,727916	-0,506684	251,403	-0,135801	0,000000	0,000000
2,697914	-0,821981	252,903	-0,135927	0,000000	0,000000
2,667947	-0,590109	254,407	-0,135834	0,000000	0,000000
2,637936	-0,482147	255,911	-0,135792	0,000000	0,000000
2,607950	-0,365598	257,416	-0,135745	0,000000	0,000000
2,577941	-0,323885	258,919	-0,135729	0,000000	0,000000
2,547954	-0,240460	260,422	-0,135695	0,000000	0,000000
2,537924	-0,132498	260,923	-0,135652	0,000000	0,000000