File: Nanoindentation Datenauswertung/data/PDMS/EM-PDMS-50-10-50-0,5um-3
Quasi static measurement routine
Tip parameters (shape,radius, material...)
15.08.2022

Piezo position[nm]	MEMS displ.[nm]	Time[ms]	Cap [pf]	Temp [°C]	Rh [%]
eoh
2,119954	0,130768	0,203	-0,106214	22,360000	52,685000
2,126394	0,650242	0,855	-0,106003	22,360000	52,685000
2,132964	0,260337	1,506	-0,106162	22,360000	52,685000
2,139434	0,520673	2,160	-0,106056	22,370000	52,715000
2,145941	-0,064784	2,814	-0,106294	22,370000	52,715000
2,152394	0,260337	3,469	-0,106162	22,370000	52,715000
2,158921	0,325121	4,122	-0,106135	22,370000	52,730000
2,165377	0,454689	4,776	-0,106083	22,370000	52,730000
2,171925	0,520673	5,428	-0,106056	22,370000	52,730000
2,178478	0,454689	6,079	-0,106083	22,360000	52,700000
2,184895	0,781010	6,732	-0,105950	22,360000	52,700000
2,191394	0,391105	7,387	-0,106108	22,360000	52,700000
2,197873	0,715026	8,039	-0,105977	22,360000	52,700000
2,204484	0,130768	8,693	-0,106214	22,360000	52,700000
2,210950	0,454689	9,346	-0,106083	22,360000	52,700000
2,217429	0,781010	10,002	-0,105950	22,360000	52,700000
2,223939	0,325121	10,660	-0,106135	22,360000	52,725000
2,230459	0,520673	11,316	-0,106056	22,360000	52,725000
2,236967	0,391105	11,971	-0,106108	22,360000	52,725000
2,243405	0,325121	12,634	-0,106135	22,360000	52,725000
2,249919	0,325121	13,286	-0,106135	22,360000	52,725000
2,256436	0,391105	13,946	-0,106108	22,360000	52,725000
2,262937	0,585458	14,600	-0,106029	22,360000	52,710000
2,269418	0,454689	15,253	-0,106083	22,360000	52,710000
2,275944	0,260337	15,907	-0,106162	22,360000	52,710000
2,282445	0,715026	16,564	-0,105977	22,360000	52,700000
2,288951	0,650242	17,232	-0,106003	22,360000	52,700000
2,295423	0,260337	17,889	-0,106162	22,360000	52,700000
2,301982	0,325121	18,550	-0,106135	22,360000	52,700000
2,308457	-2,274647	19,208	-0,107193	22,360000	52,700000
2,314895	0,845794	19,860	-0,105923	22,360000	52,700000
2,321469	3,186425	20,519	-0,104971	22,360000	52,740000
2,327878	5,201935	21,180	-0,104150	22,360000	52,740000
2,334445	7,541366	21,846	-0,103198	22,360000	52,740000
2,340899	9,362523	22,505	-0,102457	22,360000	52,700000
2,347459	12,743301	23,166	-0,101081	22,360000	52,700000
2,353977	14,629242	23,829	-0,100313	22,360000	52,700000
2,360480	16,384415	24,483	-0,099599	22,370000	52,730000
2,366920	18,854615	25,150	-0,098594	22,370000	52,730000
2,373437	21,371602	25,804	-0,097569	22,370000	52,730000
2,379884	23,860997	26,457	-0,096556	22,370000	52,730000
2,386422	26,331196	27,142	-0,095551	22,370000	52,730000
2,392929	28,021585	27,798	-0,094863	22,370000	52,730000
2,399465	31,206811	28,462	-0,093566	22,350000	52,710000
2,405889	33,742994	29,114	-0,092534	22,350000	52,710000
2,412392	34,847925	29,792	-0,092084	22,350000	52,710000
2,418916	37,903582	30,457	-0,090841	22,350000	52,710000
2,425446	40,373781	31,110	-0,089835	22,350000	52,710000
2,431923	42,324507	31,763	-0,089042	22,350000	52,710000
2,438373	45,250595	32,416	-0,087851	22,360000	52,710000
2,444905	47,460458	33,083	-0,086951	22,360000	52,710000
2,451389	49,867072	33,762	-0,085972	22,360000	52,710000
2,457967	52,662393	34,412	-0,084834	22,360000	52,725000
2,464416	54,872255	35,066	-0,083935	22,360000	52,725000
2,470890	57,083317	35,735	-0,083035	22,360000	52,725000
2,477449	59,553517	36,410	-0,082029	22,350000	52,685000
2,483906	62,609173	37,070	-0,080786	22,350000	52,685000
2,490409	65,014588	37,722	-0,079807	22,350000	52,685000
2,496951	66,379856	38,408	-0,079251	22,350000	52,685000
2,503402	68,916040	39,062	-0,078219	22,350000	52,685000
2,509920	71,906912	39,716	-0,077001	22,350000	52,685000
2,516375	74,377111	40,369	-0,075996	22,360000	52,710000
2,522902	76,263053	41,021	-0,075229	22,360000	52,710000
2,529434	78,472915	41,673	-0,074329	22,360000	52,710000
2,535911	80,423641	42,326	-0,073535	22,370000	52,715000
2,542400	82,568719	42,999	-0,072662	22,370000	52,715000
2,548858	85,884713	43,663	-0,071313	22,370000	52,715000
2,555422	88,160559	44,336	-0,070386	22,370000	52,730000
2,561955	90,240853	45,014	-0,069540	22,370000	52,730000
2,568391	92,840621	45,671	-0,068481	22,370000	52,730000
2,574940	95,572357	46,326	-0,067370	22,360000	52,700000
2,581364	98,367677	46,977	-0,066232	22,360000	52,700000
2,587947	100,577540	47,662	-0,065333	22,360000	52,700000
2,594462	102,528265	48,316	-0,064539	22,360000	52,700000
2,600930	105,194017	48,972	-0,063454	22,360000	52,700000
2,607388	107,859769	49,660	-0,062369	22,360000	52,700000
2,613858	109,680926	50,314	-0,061627	22,350000	52,735000
2,619911	112,215909	50,985	-0,060596	22,350000	52,735000
2,619898	111,760020	51,667	-0,060781	22,350000	52,735000
2,619910	111,370115	52,321	-0,060940	22,360000	52,700000
2,619891	110,460736	52,997	-0,061310	22,360000	52,700000
2,619876	111,240546	53,668	-0,060993	22,360000	52,700000
2,619873	109,940063	54,320	-0,061522	22,360000	52,725000
2,619871	110,265184	54,973	-0,061390	22,360000	52,725000
2,619890	109,940063	55,628	-0,061522	22,360000	52,725000
2,619912	109,744510	56,279	-0,061602	22,350000	52,685000
2,619900	109,160252	56,945	-0,061839	22,350000	52,685000
2,619877	109,095468	57,615	-0,061866	22,350000	52,685000
2,619892	108,574795	58,273	-0,062078	22,360000	52,710000
2,619871	108,770347	58,948	-0,061998	22,360000	52,710000
2,619888	108,445226	59,625	-0,062130	22,360000	52,710000
2,619884	108,184889	60,279	-0,062236	22,360000	52,710000
2,619885	107,794984	60,956	-0,062395	22,360000	52,710000
2,615396	104,349422	61,623	-0,063797	22,360000	52,710000
2,608963	101,878023	62,277	-0,064803	22,370000	52,715000
2,602420	98,497245	62,935	-0,066179	22,370000	52,715000
2,595933	95,701925	63,615	-0,067317	22,370000	52,715000
2,589431	91,996027	64,281	-0,068825	22,360000	52,700000
2,582915	88,615249	64,965	-0,070201	22,360000	52,700000
2,576413	85,494808	65,630	-0,071471	22,360000	52,700000
2,569898	81,788909	66,286	-0,072979	22,360000	52,700000
2,563430	79,187941	66,974	-0,074038	22,360000	52,700000
2,556905	75,156922	67,661	-0,075679	22,360000	52,700000
2,550420	72,557154	68,333	-0,076737	22,360000	52,710000
2,543868	69,435513	69,015	-0,078007	22,360000	52,710000
2,537433	67,096082	69,687	-0,078959	22,360000	52,710000
2,530921	64,430331	70,341	-0,080044	22,360000	52,700000
2,524424	60,854000	71,012	-0,081500	22,360000	52,700000
2,517951	56,497860	71,684	-0,083273	22,360000	52,700000
2,511363	53,832108	72,342	-0,084358	22,360000	52,710000
2,504927	50,972004	73,035	-0,085522	22,360000	52,710000
2,498447	47,851562	73,699	-0,086792	22,360000	52,710000
2,491981	44,990258	74,354	-0,087957	22,360000	52,700000
2,485402	42,130154	75,028	-0,089121	22,360000	52,700000
2,478967	39,333634	75,695	-0,090259	22,360000	52,700000
2,472467	37,384108	76,352	-0,091052	22,360000	52,710000
2,465916	33,678209	77,045	-0,092561	22,360000	52,710000
2,459401	30,816905	77,727	-0,093725	22,360000	52,710000
2,452896	29,061732	78,433	-0,094439	22,360000	52,710000
2,446458	26,526749	79,095	-0,095471	22,360000	52,710000
2,439905	23,015203	79,778	-0,096900	22,360000	52,710000
2,433477	20,805340	80,474	-0,097800	22,360000	52,710000
2,426922	19,569641	81,149	-0,098303	22,360000	52,710000
2,420364	17,554131	81,826	-0,099123	22,360000	52,710000
2,413926	15,473837	82,506	-0,099970	22,360000	52,685000
2,407432	14,692827	83,212	-0,100288	22,360000	52,685000
2,400956	13,003638	83,864	-0,100975	22,360000	52,685000
2,394427	11,052912	84,523	-0,101769	22,360000	52,685000
2,387900	8,581513	85,188	-0,102775	22,360000	52,685000
2,381438	6,826340	85,856	-0,103489	22,360000	52,685000
2,374935	4,746046	86,533	-0,104336	22,360000	52,725000
2,368385	4,095804	87,209	-0,104601	22,360000	52,725000
2,361938	1,496036	87,887	-0,105659	22,360000	52,725000
2,355407	0,715026	88,575	-0,105977	22,370000	52,690000
2,348987	-0,909379	89,284	-0,106638	22,370000	52,690000
2,342385	-2,600967	89,958	-0,107326	22,370000	52,690000
2,335888	-3,835467	90,611	-0,107829	22,360000	52,725000
2,329443	-5,590640	91,308	-0,108543	22,360000	52,725000
2,322975	-7,151461	92,010	-0,109178	22,360000	52,725000
2,316422	-7,996055	92,682	-0,109522	22,360000	52,710000
2,309963	-9,231755	93,377	-0,110025	22,360000	52,710000
2,303448	-11,117696	94,069	-0,110792	22,360000	52,700000
2,296993	-12,091859	94,728	-0,111189	22,360000	52,700000
2,290443	-13,002438	95,437	-0,111560	22,360000	52,700000
2,283910	-14,563258	96,121	-0,112195	22,370000	52,715000
2,277410	-15,407853	96,804	-0,112539	22,370000	52,715000
2,270937	-17,554131	97,485	-0,113412	22,370000	52,715000
2,264416	-15,017948	98,164	-0,112380	22,370000	52,715000
2,257968	-12,808085	98,854	-0,111480	22,370000	52,715000
2,251396	-9,686444	99,526	-0,110210	22,370000	52,715000
2,244944	-7,281029	100,219	-0,109231	22,370000	52,715000
2,238435	-5,980546	100,915	-0,108702	22,370000	52,715000
2,231974	-2,730536	101,606	-0,107379	22,370000	52,715000
2,225433	-2,534983	102,285	-0,107299	22,360000	52,685000
2,218933	0,195552	102,967	-0,106188	22,360000	52,685000
2,212455	0,195552	103,657	-0,106188	22,360000	52,685000
2,205861	0,325121	104,312	-0,106135	22,360000	52,700000
2,199432	0,520673	105,010	-0,106056	22,360000	52,700000
2,192904	0,520673	105,701	-0,106056	22,360000	52,700000
2,186422	0,000000	106,373	-0,106268	22,350000	52,725000
2,179942	0,454689	107,076	-0,106083	22,350000	52,725000
2,173392	0,391105	107,764	-0,106108	22,350000	52,725000
2,166903	0,520673	108,446	-0,106056	22,360000	52,710000
2,160393	0,260337	109,122	-0,106162	22,360000	52,710000
2,153918	0,391105	109,831	-0,106108	22,360000	52,710000
2,147400	0,064784	110,516	-0,106241	22,360000	52,710000
2,140933	0,325121	111,177	-0,106135	22,360000	52,710000
2,134434	0,585458	111,855	-0,106029	22,360000	52,710000
2,127948	0,715026	112,528	-0,105977	22,360000	52,710000
2,121421	-0,325121	113,226	-0,106400	22,360000	52,710000
2,119929	-0,194353	113,376	-0,106347	22,360000	52,710000