File: Nanoindentation Datenauswertung/data/PDMS/EM-PDMS-120-10-120-1,2um-1
Quasi static measurement routine
Tip parameters (shape,radius, material...)
26.08.2022

Piezo position[nm]	MEMS displ.[nm]	Time[ms]	Cap [pf]	Temp [°C]	Rh [%]
eoh
1,834074	0,050300	0,160	-0,135050	22,730000	57,755000
1,849033	-0,249048	1,664	-0,135169	22,740000	57,730000
1,864047	-0,107962	3,168	-0,135113	22,730000	57,770000
1,879072	-0,008588	4,672	-0,135074	22,730000	57,770000
1,894036	-0,083425	6,175	-0,135104	22,730000	57,770000
1,909017	0,033125	7,678	-0,135057	22,730000	57,795000
1,924018	-0,149674	9,182	-0,135130	22,730000	57,770000
1,938984	0,008588	10,687	-0,135067	22,730000	57,770000
1,954040	0,008588	12,194	-0,135067	22,730000	57,770000
1,969046	-0,215923	13,700	-0,135156	22,730000	57,755000
1,984047	-0,290760	15,205	-0,135186	22,730000	57,780000
1,999053	-0,307936	16,707	-0,135193	22,730000	57,780000
2,014096	-0,415898	18,208	-0,135236	22,730000	57,770000
2,029102	-0,282173	19,713	-0,135183	22,730000	57,770000
2,044028	-0,423259	21,215	-0,135239	22,710000	57,750000
2,059013	-0,249048	22,719	-0,135169	22,710000	57,750000
2,074022	-0,374185	24,225	-0,135219	22,730000	57,740000
2,089065	-0,341061	25,728	-0,135206	22,720000	57,765000
2,104130	-0,282173	27,229	-0,135183	22,720000	57,765000
2,119102	-0,689483	28,732	-0,135345	22,720000	57,765000
2,134066	-0,456383	30,236	-0,135252	22,720000	57,750000
2,149004	-0,664946	31,743	-0,135335	22,720000	57,750000
2,164003	-0,523860	33,248	-0,135279	22,730000	57,755000
2,178994	-0,548396	34,749	-0,135289	22,730000	57,755000
2,194081	-0,764320	36,251	-0,135375	22,740000	57,715000
2,209015	-0,490735	37,753	-0,135266	22,720000	57,735000
2,224049	-0,647770	39,255	-0,135328	22,720000	57,735000
2,238977	-0,523860	40,756	-0,135279	22,720000	57,735000
2,253957	-0,748371	42,257	-0,135368	22,730000	57,770000
2,269021	-0,680895	43,757	-0,135341	22,710000	57,725000
2,284017	-0,772908	45,260	-0,135378	22,740000	57,740000
2,299059	-0,988831	46,762	-0,135464	22,740000	57,740000
2,314103	-1,262416	48,265	-0,135573	22,740000	57,740000
2,329041	-1,296767	49,766	-0,135586	22,720000	57,750000
2,344039	-72,311018	51,271	-0,163850	22,730000	57,715000
2,359031	-70,025420	52,772	-0,162940	22,730000	57,715000
2,374017	-65,828410	54,278	-0,161270	22,730000	57,715000
2,389032	-60,426645	55,786	-0,159120	22,730000	57,730000
2,404080	-54,716944	57,291	-0,156848	22,720000	57,765000
2,419035	-49,033007	58,793	-0,154585	22,720000	57,765000
2,434019	-43,671728	60,300	-0,152452	22,720000	57,765000
2,449070	-38,236838	61,805	-0,150289	22,730000	57,730000
2,464002	-32,195892	63,308	-0,147884	22,730000	57,730000
2,479061	-26,635865	64,810	-0,145671	22,730000	57,730000
2,494048	-20,426841	66,314	-0,143200	22,730000	57,730000
2,509050	-14,469319	67,817	-0,140829	22,720000	57,725000
2,523987	-7,911874	69,318	-0,138219	22,730000	57,755000
2,539021	-1,387553	70,821	-0,135623	22,730000	57,755000
2,554025	5,368640	72,328	-0,132934	22,730000	57,755000
2,569070	12,532143	73,832	-0,130083	22,730000	57,700000
2,584013	18,649154	75,334	-0,127648	22,730000	57,740000
2,598937	25,638446	76,835	-0,124866	22,730000	57,755000
2,613993	31,456109	78,336	-0,122551	22,730000	57,755000
2,629062	38,187765	79,840	-0,119872	22,730000	57,740000
2,643965	32,029042	81,341	-0,122323	22,730000	57,740000
2,659069	20,336055	82,845	-0,126977	22,730000	57,730000
2,673976	25,854370	84,349	-0,124780	22,730000	57,730000
2,689032	31,430345	85,853	-0,122561	22,730000	57,730000
2,704002	36,849285	87,357	-0,120404	22,730000	57,700000
2,719021	42,501325	88,864	-0,118155	22,730000	57,740000
2,734002	48,907869	90,369	-0,115605	22,730000	57,740000
2,749011	54,850669	91,874	-0,113240	22,730000	57,770000
2,763987	61,291565	93,377	-0,110676	22,730000	57,770000
2,779011	69,252513	94,881	-0,107508	22,730000	57,740000
2,793992	77,538572	96,382	-0,104210	22,730000	57,740000
2,809008	85,699494	97,885	-0,100962	22,730000	57,740000
2,823991	93,669029	99,389	-0,097790	22,730000	57,715000
2,839007	102,129299	100,893	-0,094423	22,730000	57,740000
2,854000	110,830029	102,397	-0,090960	22,730000	57,740000
2,868975	119,241226	103,902	-0,087612	22,730000	57,730000
2,884006	127,468397	105,408	-0,084338	22,730000	57,700000
2,898968	136,485651	106,911	-0,080749	22,730000	57,700000
2,914009	144,836732	108,412	-0,077425	22,730000	57,700000
2,929029	153,173092	109,915	-0,074107	22,730000	57,715000
2,943974	161,267765	111,421	-0,070886	22,730000	57,780000
2,958998	170,758578	112,926	-0,067108	22,720000	57,695000
2,973988	179,177136	114,429	-0,063758	22,720000	57,695000
2,988961	187,679118	115,930	-0,060374	22,710000	57,750000
3,003978	196,230174	117,432	-0,056971	22,720000	57,735000
3,019046	205,762700	118,938	-0,053177	22,720000	57,735000
3,034017	214,713705	120,445	-0,049614	22,720000	57,735000
3,033966	213,573973	121,947	-0,050068	22,730000	57,730000
3,033983	213,665986	123,449	-0,050031	22,730000	57,730000
3,033977	212,344682	124,955	-0,050557	22,740000	57,700000
3,033968	212,012209	126,458	-0,050689	22,740000	57,700000
3,034057	211,629436	127,960	-0,050842	22,740000	57,715000
3,033986	211,455225	129,466	-0,050911	22,740000	57,715000
3,028987	207,898624	130,969	-0,052327	22,730000	57,730000
3,014018	197,784577	132,473	-0,056352	22,730000	57,730000
2,999041	188,526863	133,980	-0,060037	22,730000	57,730000
2,983985	178,353928	135,482	-0,064085	22,730000	57,730000
2,969002	169,162463	136,985	-0,067744	22,720000	57,710000
2,954006	159,506026	138,489	-0,071587	22,720000	57,710000
2,938979	149,616491	139,990	-0,075523	22,730000	57,700000
2,923958	140,474099	141,497	-0,079162	22,730000	57,740000
2,909022	131,548858	143,000	-0,082714	22,720000	57,750000
2,894006	122,223667	144,506	-0,086425	22,720000	57,750000
2,879028	112,218809	146,008	-0,090407	22,720000	57,725000
2,864024	103,175791	147,513	-0,094006	22,720000	57,725000
2,848988	94,492237	149,016	-0,097462	22,740000	57,715000
2,833992	85,541232	150,520	-0,101025	22,740000	57,715000
2,818989	76,889575	152,023	-0,104468	22,730000	57,730000
2,803962	67,640448	153,526	-0,108149	22,730000	57,700000
2,789053	58,856293	155,029	-0,111646	22,730000	57,700000
2,774016	50,312598	156,535	-0,115046	22,730000	57,700000
2,758995	41,761542	158,038	-0,118449	22,720000	57,680000
2,744010	32,013093	159,540	-0,122329	22,720000	57,680000
2,729059	23,544235	161,045	-0,125700	22,720000	57,695000
2,714050	14,485268	162,549	-0,129305	22,720000	57,695000
2,699064	6,540270	164,050	-0,132467	22,730000	57,715000
2,684030	-1,686901	165,555	-0,135742	22,730000	57,715000
2,669019	-10,047798	167,062	-0,139069	22,730000	57,685000
2,654078	-18,814777	168,566	-0,142559	22,730000	57,685000
2,639081	-25,904670	170,071	-0,145380	22,730000	57,685000
2,624049	-33,715943	171,576	-0,148489	22,720000	57,680000
2,609023	-41,694066	173,078	-0,151665	22,730000	57,715000
2,594066	-49,073492	174,580	-0,154602	22,730000	57,715000
2,579021	-56,354772	176,084	-0,157500	22,730000	57,715000
2,564048	-63,758735	177,587	-0,160446	22,720000	57,670000
2,549027	-69,884334	179,087	-0,162884	22,730000	57,700000
2,534083	-75,984169	180,588	-0,165312	22,730000	57,700000
2,519058	-81,626394	182,095	-0,167558	22,730000	57,715000
2,504070	-87,917615	183,599	-0,170062	22,730000	57,715000
2,489103	-93,801527	185,106	-0,172403	22,710000	57,680000
2,474045	-99,968838	186,608	-0,174858	22,710000	57,680000
2,459106	-106,026961	188,114	-0,177269	22,740000	57,715000
2,444082	-113,215001	189,618	-0,180130	22,740000	57,715000
2,429055	-120,445980	191,123	-0,183008	22,730000	57,730000
2,413987	-127,409508	192,629	-0,185779	22,730000	57,730000
2,399067	-134,299427	194,132	-0,188521	22,730000	57,715000
2,384087	-141,779454	195,637	-0,191499	22,720000	57,695000
2,369049	-148,260835	197,140	-0,194078	22,730000	57,700000
2,354058	-155,175291	198,642	-0,196830	22,730000	57,700000
2,339021	-162,679854	200,146	-0,199817	22,730000	57,700000
2,324053	-168,638603	201,649	-0,202188	22,720000	57,670000
2,309079	-175,918656	203,151	-0,205086	22,730000	57,685000
2,294006	-181,952242	204,658	-0,207487	22,730000	57,685000
2,279093	-188,575936	206,162	-0,210124	22,730000	57,730000
2,264089	-193,836615	207,669	-0,212217	22,730000	57,715000
2,249105	-197,311018	209,172	-0,213600	22,730000	57,685000
2,234027	-141,379505	210,675	-0,191339	22,730000	57,685000
2,219057	-136,102878	212,177	-0,189239	22,730000	57,685000
2,203985	-135,388858	213,680	-0,188955	22,730000	57,700000
2,189043	-136,003504	215,184	-0,189200	22,730000	57,685000
2,174066	-138,662060	216,689	-0,190258	22,730000	57,685000
2,159075	-140,299888	218,192	-0,190910	22,730000	57,685000
2,144039	-141,986789	219,693	-0,191581	22,730000	57,730000
2,129069	-143,988988	221,198	-0,192378	22,730000	57,730000
2,114040	-145,078419	222,700	-0,192812	22,730000	57,730000
2,099025	-145,285755	224,202	-0,192894	22,740000	57,685000
2,084028	-136,675811	225,707	-0,189467	22,730000	57,685000
2,069007	-0,631821	227,207	-0,135322	22,720000	57,670000
2,054025	-0,631821	228,709	-0,135322	22,720000	57,670000
2,039039	-0,748371	230,214	-0,135368	22,730000	57,700000
2,024045	-0,947118	231,718	-0,135447	22,720000	57,735000
2,009058	-0,731195	233,222	-0,135361	22,720000	57,640000
1,994052	-0,365598	234,728	-0,135216	22,720000	57,640000
1,979018	-0,565572	236,235	-0,135295	22,730000	57,660000
1,964061	-0,282173	237,738	-0,135183	22,730000	57,660000
1,949046	-0,440435	239,243	-0,135246	22,710000	57,710000
1,934045	-0,473559	240,747	-0,135259	22,710000	57,710000
1,919033	-0,539808	242,252	-0,135285	22,710000	57,710000
1,904068	-0,215923	243,755	-0,135156	22,730000	57,675000
1,889042	-0,764320	245,259	-0,135375	22,730000	57,675000
1,874056	-0,415898	246,760	-0,135236	22,730000	57,675000
1,859080	-0,240460	248,263	-0,135166	22,730000	57,685000
1,844048	-0,191387	249,766	-0,135146	22,730000	57,685000
1,834073	-0,374185	250,769	-0,135219	22,730000	57,685000