File: Nanoindentation Datenauswertung/data/PDMS/EM-PDMS-50-10-50-0,5um-1
Quasi static measurement routine
Tip parameters (shape,radius, material...)
12.08.2022

Piezo position[nm]	MEMS displ.[nm]	Time[ms]	Cap [pf]	Temp [°C]	Rh [%]
eoh
2,040028	-0,259137	0,185	-0,106373	22,350000	47,335000
2,046503	0,130768	0,842	-0,106214	22,350000	47,335000
2,053001	0,391105	1,526	-0,106108	22,350000	47,335000
2,059519	0,585458	2,201	-0,106029	22,360000	47,350000
2,065996	0,195552	2,863	-0,106188	22,360000	47,350000
2,072525	-0,064784	3,515	-0,106294	22,360000	47,350000
2,079034	-0,325121	4,185	-0,106400	22,350000	47,320000
2,085519	-0,194353	4,845	-0,106347	22,350000	47,320000
2,091974	-0,129568	5,524	-0,106320	22,350000	47,320000
2,098549	-0,650242	6,198	-0,106532	22,350000	47,320000
2,105023	-0,064784	6,851	-0,106294	22,350000	47,320000
2,111478	0,130768	7,514	-0,106214	22,350000	47,320000
2,118008	-0,519474	8,165	-0,106479	22,350000	47,350000
2,124496	0,000000	8,818	-0,106268	22,350000	47,350000
2,130965	-0,519474	9,472	-0,106479	22,350000	47,350000
2,137475	-0,064784	10,125	-0,106294	22,350000	47,350000
2,143994	0,064784	10,777	-0,106241	22,350000	47,350000
2,150462	-0,519474	11,430	-0,106479	22,350000	47,350000
2,156979	-0,779810	12,085	-0,106585	22,360000	47,335000
2,163458	0,260337	12,739	-0,106162	22,360000	47,335000
2,170002	0,130768	13,393	-0,106214	22,360000	47,335000
2,176516	0,195552	14,047	-0,106188	22,350000	47,350000
2,182945	-0,259137	14,702	-0,106373	22,350000	47,350000
2,189462	-0,064784	15,362	-0,106294	22,350000	47,350000
2,196010	-0,064784	16,023	-0,106294	22,350000	47,350000
2,202498	-0,519474	16,679	-0,106479	22,350000	47,350000
2,208998	-0,519474	17,333	-0,106479	22,350000	47,350000
2,215515	-6,111314	17,987	-0,108755	22,350000	47,350000
2,221977	-3,055657	18,675	-0,107511	22,350000	47,350000
2,228502	-1,234500	19,330	-0,106770	22,350000	47,350000
2,235035	0,520673	19,982	-0,106056	22,350000	47,350000
2,241512	2,080294	20,652	-0,105421	22,350000	47,350000
2,247990	4,420925	21,342	-0,104468	22,350000	47,350000
2,254535	6,111314	22,002	-0,103780	22,350000	47,350000
2,260957	7,476582	22,701	-0,103225	22,350000	47,350000
2,267517	9,297739	23,404	-0,102483	22,350000	47,350000
2,273941	10,727791	24,083	-0,101901	22,350000	47,350000
2,280545	12,157843	24,800	-0,101319	22,350000	47,350000
2,287002	13,979000	25,478	-0,100578	22,350000	47,350000
2,293457	16,253647	26,162	-0,099652	22,340000	47,335000
2,300006	18,139588	26,819	-0,098885	22,340000	47,335000
2,306496	19,700409	27,489	-0,098250	22,340000	47,335000
2,312978	21,130461	28,160	-0,097667	22,360000	47,335000
2,319457	24,965928	28,825	-0,096106	22,360000	47,335000
2,325935	26,981438	29,506	-0,095286	22,360000	47,335000
2,332518	28,151154	30,165	-0,094810	22,360000	47,350000
2,338998	30,037095	30,857	-0,094042	22,360000	47,350000
2,345488	31,987821	31,541	-0,093249	22,360000	47,350000
2,351956	34,328451	32,194	-0,092296	22,340000	47,375000
2,358515	36,473530	32,852	-0,091423	22,340000	47,375000
2,365065	38,099134	33,522	-0,090761	22,340000	47,375000
2,371524	40,179428	34,175	-0,089915	22,360000	47,350000
2,377965	41,544696	34,853	-0,089359	22,360000	47,350000
2,384467	42,715612	35,532	-0,088882	22,360000	47,350000
2,390976	43,495422	36,202	-0,088565	22,360000	47,350000
2,397485	45,510932	36,854	-0,087745	22,360000	47,350000
2,403974	47,070552	37,506	-0,087110	22,360000	47,350000
2,410519	47,460458	38,163	-0,086951	22,350000	47,320000
2,417011	50,061425	38,829	-0,085893	22,350000	47,320000
2,423506	51,556262	39,530	-0,085284	22,350000	47,320000
2,429980	54,222013	40,196	-0,084199	22,350000	47,350000
2,436534	56,107955	40,853	-0,083432	22,350000	47,350000
2,442966	58,578154	41,554	-0,082426	22,350000	47,350000
2,449490	62,219268	42,207	-0,080944	22,350000	47,350000
2,456018	64,105210	42,887	-0,080177	22,350000	47,350000
2,462495	67,096082	43,555	-0,078959	22,350000	47,350000
2,468918	69,176376	44,209	-0,078113	22,350000	47,335000
2,475488	72,426386	44,871	-0,076790	22,350000	47,335000
2,482047	74,831801	45,549	-0,075811	22,350000	47,335000
2,488475	77,107647	46,209	-0,074885	22,350000	47,310000
2,494996	79,448278	46,885	-0,073932	22,350000	47,310000
2,501487	83,218961	47,614	-0,072397	22,350000	47,310000
2,508005	86,534955	48,270	-0,071048	22,350000	47,350000
2,514520	88,419696	48,943	-0,070281	22,350000	47,350000
2,521004	91,216216	49,610	-0,069143	22,350000	47,350000
2,527484	93,751200	50,277	-0,068111	22,350000	47,350000
2,533993	96,872841	50,949	-0,066840	22,350000	47,350000
2,540003	98,628014	51,610	-0,066126	22,350000	47,350000
2,539999	97,977772	52,271	-0,066391	22,350000	47,320000
2,539969	98,172125	52,941	-0,066312	22,350000	47,320000
2,540034	97,717435	53,612	-0,066497	22,350000	47,320000
2,539988	97,002409	54,277	-0,066788	22,350000	47,335000
2,539970	96,937625	54,965	-0,066814	22,350000	47,335000
2,540015	96,872841	55,633	-0,066840	22,350000	47,335000
2,539969	97,002409	56,312	-0,066788	22,350000	47,335000
2,540018	96,806857	56,965	-0,066867	22,350000	47,335000
2,540005	96,806857	57,644	-0,066867	22,350000	47,335000
2,539999	96,222599	58,315	-0,067105	22,350000	47,335000
2,539960	95,766710	58,973	-0,067291	22,350000	47,335000
2,540010	96,222599	59,650	-0,067105	22,350000	47,335000
2,539946	95,832693	60,323	-0,067264	22,350000	47,335000
2,539964	95,441589	60,995	-0,067423	22,350000	47,335000
2,540014	94,922115	61,663	-0,067634	22,350000	47,320000
2,535501	92,646268	62,329	-0,068561	22,350000	47,320000
2,528988	89,265491	62,995	-0,069937	22,350000	47,320000
2,522511	86,274618	63,665	-0,071154	22,350000	47,350000
2,515961	83,089393	64,326	-0,072450	22,350000	47,350000
2,509453	78,993589	65,000	-0,074117	22,350000	47,350000
2,502977	75,612811	65,682	-0,075493	22,360000	47,350000
2,496496	71,971696	66,333	-0,076975	22,360000	47,350000
2,489948	68,980824	66,988	-0,078192	22,360000	47,350000
2,483478	65,145357	67,661	-0,079753	22,360000	47,350000
2,477008	62,544389	68,329	-0,080812	22,360000	47,350000
2,470457	59,619501	68,983	-0,082002	22,360000	47,350000
2,464002	55,847618	69,663	-0,083538	22,360000	47,335000
2,457500	52,922729	70,328	-0,084728	22,360000	47,335000
2,450991	49,801088	70,987	-0,085999	22,360000	47,335000
2,444541	47,395673	71,662	-0,086978	22,360000	47,335000
2,438024	44,210448	72,364	-0,088274	22,360000	47,335000
2,431453	41,219575	73,027	-0,089491	22,360000	47,335000
2,424962	37,903582	73,681	-0,090841	22,360000	47,320000
2,418483	34,328451	74,366	-0,092296	22,360000	47,320000
2,411995	32,377726	75,035	-0,093090	22,360000	47,320000
2,405528	30,232647	75,731	-0,093963	22,350000	47,350000
2,398987	27,046222	76,414	-0,095260	22,350000	47,350000
2,392515	24,901144	77,083	-0,096133	22,350000	47,350000
2,385993	22,820850	77,782	-0,096979	22,350000	47,350000
2,379458	20,609788	78,439	-0,097879	22,350000	47,350000
2,372988	19,440072	79,119	-0,098355	22,350000	47,350000
2,366488	17,293794	79,785	-0,099229	22,340000	47,350000
2,359980	15,409053	80,481	-0,099996	22,340000	47,350000
2,353526	14,433690	81,163	-0,100393	22,340000	47,350000
2,347019	12,157843	81,841	-0,101319	22,350000	47,320000
2,340500	10,792575	82,509	-0,101875	22,350000	47,320000
2,334016	9,817212	83,192	-0,102272	22,350000	47,320000
2,327475	7,997255	83,862	-0,103013	22,350000	47,320000
2,321042	6,892324	84,537	-0,103462	22,350000	47,320000
2,314467	5,006382	85,223	-0,104230	22,350000	47,320000
2,307991	3,120441	85,889	-0,104998	22,350000	47,350000
2,301528	2,340631	86,570	-0,105315	22,350000	47,350000
2,295005	0,260337	87,249	-0,106162	22,350000	47,350000
2,288502	-1,104931	87,948	-0,106717	22,350000	47,350000
2,282029	-2,145078	88,615	-0,107141	22,350000	47,350000
2,275469	-3,120441	89,315	-0,107538	22,350000	47,350000
2,269031	-5,200735	89,999	-0,108384	22,360000	47,320000
2,262495	-5,915761	90,687	-0,108675	22,360000	47,320000
2,255951	-6,761556	91,372	-0,109020	22,360000	47,320000
2,249487	-8,191608	92,052	-0,109602	22,350000	47,350000
2,243020	-9,166971	92,778	-0,109999	22,350000	47,350000
2,236472	-9,556876	93,444	-0,110157	22,350000	47,350000
2,230036	-10,532239	94,131	-0,110554	22,350000	47,350000
2,223481	-10,986928	94,804	-0,110739	22,350000	47,350000
2,216998	-11,897507	95,457	-0,111110	22,350000	47,350000
2,210499	-12,547748	96,139	-0,111375	22,350000	47,335000
2,203939	-13,002438	96,840	-0,111560	22,350000	47,335000
2,197509	-13,977801	97,505	-0,111957	22,350000	47,335000
2,191018	-13,848232	98,184	-0,111904	22,350000	47,350000
2,184509	-15,472637	98,874	-0,112565	22,350000	47,350000
2,177968	-17,098242	99,559	-0,113227	22,350000	47,350000
2,171491	-16,708337	100,236	-0,113068	22,340000	47,335000
2,165026	-0,585458	100,926	-0,106506	22,340000	47,335000
2,158514	-0,064784	101,615	-0,106294	22,340000	47,335000
2,152020	0,260337	102,303	-0,106162	22,350000	47,335000
2,145449	0,130768	102,984	-0,106214	22,350000	47,335000
2,138998	-0,194353	103,653	-0,106347	22,350000	47,310000
2,132512	-0,585458	104,313	-0,106506	22,350000	47,310000
2,125996	0,064784	105,014	-0,106241	22,350000	47,310000
2,119464	-0,389905	105,708	-0,106426	22,350000	47,310000
2,113022	-0,519474	106,408	-0,106479	22,350000	47,310000
2,106510	-0,129568	107,092	-0,106320	22,350000	47,310000
2,099982	-0,715026	107,797	-0,106559	22,360000	47,320000
2,093567	-0,259137	108,489	-0,106373	22,360000	47,320000
2,087013	-0,064784	109,195	-0,106294	22,360000	47,320000
2,080466	-0,650242	109,873	-0,106532	22,360000	47,360000
2,073967	-0,454689	110,589	-0,106453	22,360000	47,360000
2,067467	0,195552	111,270	-0,106188	22,360000	47,360000
2,061025	-0,585458	111,959	-0,106506	22,350000	47,320000
2,054496	-0,454689	112,640	-0,106453	22,350000	47,320000
2,048041	0,000000	113,354	-0,106268	22,350000	47,320000
2,041512	-0,064784	114,061	-0,106294	22,350000	47,320000
2,039998	0,195552	114,213	-0,106188	22,350000	47,320000