File: Nanoindentation Datenauswertung/data/PDMS/EM-PDMS-120-10-120-0,8um-1
Quasi static measurement routine
Tip parameters (shape,radius, material...)
26.08.2022

Piezo position[nm]	MEMS displ.[nm]	Time[ms]	Cap [pf]	Temp [°C]	Rh [%]
eoh
1,834020	-0,083425	0,191	-0,135130	22,730000	57,645000
1,843972	-0,158262	1,695	-0,135160	22,730000	57,660000
1,854003	-0,166850	3,201	-0,135163	22,730000	57,660000
1,864021	-0,125137	4,707	-0,135146	22,730000	57,660000
1,873935	-0,125137	6,213	-0,135146	22,730000	57,660000
1,884023	-0,224511	7,718	-0,135186	22,720000	57,655000
1,893909	-0,332473	9,221	-0,135229	22,730000	57,620000
1,904023	-0,349649	10,723	-0,135236	22,730000	57,620000
1,913998	-0,257636	12,225	-0,135199	22,730000	57,620000
1,923954	-0,141086	13,732	-0,135153	22,740000	57,660000
1,934011	-0,141086	15,235	-0,135153	22,730000	57,630000
1,943954	-0,698070	16,741	-0,135375	22,730000	57,630000
1,954005	-0,365598	18,244	-0,135242	22,720000	57,625000
1,963947	-0,407310	19,751	-0,135259	22,730000	57,675000
1,974022	-0,357010	21,256	-0,135239	22,730000	57,630000
1,984040	-0,299348	22,758	-0,135216	22,730000	57,630000
1,993982	-0,382773	24,264	-0,135249	22,730000	57,630000
2,003996	-0,424486	25,767	-0,135266	22,730000	57,645000
2,013958	-0,523860	27,272	-0,135305	22,730000	57,645000
2,023948	-0,299348	28,775	-0,135216	22,730000	57,645000
2,033968	-0,365598	30,280	-0,135242	22,730000	57,630000
2,043972	-0,581521	31,787	-0,135328	22,730000	57,645000
2,053983	-0,556984	33,295	-0,135318	22,730000	57,620000
2,063943	-0,466198	34,797	-0,135282	22,730000	57,620000
2,074013	-0,440435	36,302	-0,135272	22,730000	57,675000
2,083955	-0,590109	37,803	-0,135332	22,730000	57,620000
2,093968	-0,581521	39,309	-0,135328	22,730000	57,620000
2,103965	-0,556984	40,814	-0,135318	22,730000	57,620000
2,113994	-0,490735	42,318	-0,135292	22,720000	57,655000
2,124012	-0,506684	43,821	-0,135298	22,720000	57,655000
2,133957	-0,506684	45,323	-0,135298	22,730000	57,620000
2,143984	-0,706658	46,825	-0,135378	22,730000	57,620000
2,153977	-0,398722	48,332	-0,135255	22,730000	57,620000
2,163961	-0,689483	49,837	-0,135371	22,730000	57,620000
2,173989	-0,640409	51,342	-0,135352	22,740000	57,645000
2,183959	-0,739783	52,843	-0,135391	22,740000	57,645000
2,193993	-0,898045	54,347	-0,135454	22,730000	57,630000
2,203973	-0,790083	55,849	-0,135411	22,730000	57,620000
2,213957	-0,607284	57,355	-0,135338	22,730000	57,620000
2,224007	-0,640409	58,855	-0,135352	22,730000	57,620000
2,233956	-0,623233	60,358	-0,135345	22,730000	57,620000
2,243981	-0,839157	61,863	-0,135431	22,740000	57,620000
2,254015	-0,781495	63,365	-0,135408	22,730000	57,605000
2,263949	-0,913994	64,867	-0,135460	22,730000	57,605000
2,273922	-0,947118	66,369	-0,135474	22,730000	57,605000
2,283940	-1,089432	67,873	-0,135530	22,730000	57,580000
2,293939	-1,089432	69,378	-0,135530	22,730000	57,620000
2,304013	-1,063668	70,882	-0,135520	22,730000	57,605000
2,313956	-0,980243	72,385	-0,135487	22,730000	57,605000
2,323963	-1,288179	73,888	-0,135609	22,730000	57,630000
2,334021	-1,404729	75,395	-0,135656	22,730000	57,605000
2,343938	-1,529866	76,896	-0,135706	22,730000	57,605000
2,353939	-1,636601	78,398	-0,135748	22,730000	57,605000
2,363915	-71,388436	79,903	-0,163509	22,730000	57,605000
2,374016	-72,318379	81,407	-0,163879	22,730000	57,605000
2,383973	-69,659823	82,913	-0,162821	22,730000	57,605000
2,393954	-67,390174	84,418	-0,161918	22,730000	57,605000
2,403945	-64,399144	85,922	-0,160728	22,730000	57,605000
2,413916	-60,384932	87,427	-0,159130	22,740000	57,580000
2,423955	-57,193929	88,931	-0,157860	22,730000	57,605000
2,433932	-53,155180	90,434	-0,156252	22,730000	57,605000
2,443947	-49,482029	91,936	-0,154791	22,730000	57,605000
2,453939	-46,481185	93,441	-0,153596	22,730000	57,590000
2,463937	-41,902628	94,943	-0,151774	22,730000	57,605000
2,473976	-38,520238	96,445	-0,150428	22,730000	57,605000
2,483950	-34,613988	97,949	-0,148873	22,730000	57,605000
2,493968	-30,766626	99,457	-0,147342	22,740000	57,630000
2,503986	-27,043175	100,964	-0,145860	22,720000	57,600000
2,514013	-23,236299	102,468	-0,144345	22,720000	57,600000
2,523948	-19,422061	103,970	-0,142827	22,730000	57,645000
2,534011	-14,942878	105,473	-0,141044	22,730000	57,645000
2,543963	-10,986328	106,975	-0,139469	22,730000	57,605000
2,553989	-6,432308	108,479	-0,137657	22,730000	57,605000
2,563944	-2,294186	109,981	-0,136010	22,730000	57,590000
2,573992	2,343259	111,485	-0,134164	22,740000	57,630000
2,583927	6,150135	112,986	-0,132649	22,720000	57,625000
2,593959	10,521357	114,489	-0,130909	22,720000	57,625000
2,603988	14,991952	115,992	-0,129130	22,720000	57,625000
2,613924	19,173014	117,496	-0,127466	22,730000	57,620000
2,623951	23,069449	119,003	-0,125915	22,730000	57,605000
2,633949	27,010050	120,505	-0,124347	22,730000	57,605000
2,633959	26,627277	122,005	-0,124499	22,730000	57,605000
2,633919	26,053117	123,509	-0,124728	22,730000	57,605000
2,633957	26,078881	125,013	-0,124717	22,730000	57,645000
2,633957	25,455647	126,513	-0,124965	22,730000	57,645000
2,633918	25,521897	128,017	-0,124939	22,730000	57,620000
2,633959	24,947737	129,522	-0,125167	22,730000	57,590000
2,630647	22,978663	131,023	-0,125951	22,720000	57,600000
2,620611	17,535186	132,527	-0,128118	22,720000	57,600000
2,610594	12,408233	134,030	-0,130158	22,730000	57,605000
2,600622	7,429727	135,535	-0,132140	22,740000	57,630000
2,590634	1,902825	137,036	-0,134339	22,730000	57,620000
2,580615	-2,675732	138,541	-0,136162	22,730000	57,620000
2,570599	-7,944998	140,042	-0,138259	22,730000	57,580000
2,560605	-12,714942	141,545	-0,140157	22,730000	57,590000
2,550578	-17,336438	143,047	-0,141997	22,730000	57,630000
2,540662	-21,864695	144,552	-0,143799	22,730000	57,630000
2,530624	-26,327929	146,056	-0,145575	22,730000	57,620000
2,520635	-30,691789	147,561	-0,147312	22,730000	57,590000
2,510619	-34,946461	149,064	-0,149005	22,730000	57,605000
2,500622	-39,799829	150,568	-0,150937	22,730000	57,605000
2,490598	-44,005428	152,071	-0,152611	22,730000	57,605000
2,480652	-48,451486	153,578	-0,154380	22,730000	57,590000
2,470638	-52,739282	155,082	-0,156087	22,730000	57,605000
2,460667	-57,335015	156,585	-0,157916	22,730000	57,605000
2,450645	-61,067054	158,089	-0,159401	22,730000	57,605000
2,440659	-65,346263	159,595	-0,161104	22,740000	57,620000
2,430627	-69,344525	161,098	-0,162696	22,740000	57,620000
2,420630	-73,216424	162,601	-0,164237	22,740000	57,620000
2,410641	-77,246584	164,104	-0,165841	22,730000	57,590000
2,400605	-81,136886	165,607	-0,167389	22,730000	57,605000
2,390643	-84,202752	167,112	-0,168609	22,730000	57,580000
2,380644	-88,175251	168,618	-0,170190	22,730000	57,580000
2,370576	-91,266881	170,121	-0,171421	22,730000	57,580000
2,360579	-94,508185	171,624	-0,172711	22,740000	57,590000
2,350677	-97,716365	173,126	-0,173988	22,730000	57,590000
2,340627	-101,215305	174,633	-0,175380	22,730000	57,590000
2,330646	-104,340060	176,133	-0,176624	22,720000	57,600000
2,320636	-107,198591	177,637	-0,177762	22,730000	57,605000
2,310608	-110,888917	179,141	-0,179230	22,730000	57,605000
2,300612	-113,432151	180,643	-0,180243	22,730000	57,605000
2,290592	-116,473481	182,145	-0,181453	22,730000	57,605000
2,280619	-118,975002	183,653	-0,182449	22,740000	57,605000
2,270627	-121,575897	185,156	-0,183484	22,730000	57,605000
2,260620	-123,803834	186,659	-0,184371	22,730000	57,605000
2,250604	-126,453802	188,165	-0,185425	22,730000	57,580000
2,240579	-128,274429	189,669	-0,186150	22,740000	57,605000
2,230647	-130,201790	191,173	-0,186917	22,730000	57,590000
2,220603	-131,648231	192,679	-0,187493	22,730000	57,590000
2,210639	-132,678775	194,183	-0,187903	22,730000	57,590000
2,200582	-133,817280	195,688	-0,188356	22,730000	57,580000
2,190604	-135,620731	197,192	-0,189074	22,720000	57,585000
2,180628	-136,609561	198,695	-0,189467	22,720000	57,585000
2,170659	-138,122252	200,202	-0,190069	22,730000	57,590000
2,160637	-139,634942	201,704	-0,190671	22,740000	57,645000
2,150615	-141,654317	203,208	-0,191475	22,740000	57,645000
2,140614	-142,834534	204,713	-0,191945	22,740000	57,645000
2,130652	-144,173014	206,222	-0,192478	22,730000	57,590000
2,120603	-143,757116	207,724	-0,192312	22,720000	57,530000
2,110666	-140,682661	209,227	-0,191088	22,730000	57,590000
2,100638	-120,428804	210,730	-0,183027	22,730000	57,590000
2,090625	-0,698070	212,237	-0,135375	22,730000	57,590000
2,080652	-0,715246	213,742	-0,135381	22,730000	57,605000
2,070633	-0,631821	215,244	-0,135348	22,730000	57,605000
2,060650	-0,698070	216,746	-0,135375	22,730000	57,605000
2,050624	-0,607284	218,248	-0,135338	22,730000	57,590000
2,040656	-0,664946	219,751	-0,135361	22,730000	57,590000
2,030665	-0,623233	221,255	-0,135345	22,730000	57,605000
2,020628	-0,515272	222,758	-0,135302	22,730000	57,605000
2,010636	-0,572933	224,262	-0,135325	22,740000	57,590000
2,000643	-0,482147	225,764	-0,135289	22,730000	57,605000
1,990611	-0,506684	227,271	-0,135298	22,730000	57,580000
1,980625	-0,572933	228,775	-0,135325	22,730000	57,580000
1,970639	-0,531221	230,276	-0,135308	22,730000	57,565000
1,960640	-0,257636	231,781	-0,135199	22,730000	57,550000
1,950651	-0,590109	233,283	-0,135332	22,730000	57,590000
1,940652	-0,689483	234,785	-0,135371	22,730000	57,590000
1,930628	-0,357010	236,288	-0,135239	22,740000	57,580000
1,920644	-0,739783	237,793	-0,135391	22,740000	57,580000
1,910638	-0,158262	239,298	-0,135160	22,730000	57,580000
1,900638	-0,332473	240,801	-0,135229	22,730000	57,580000
1,890653	-0,640409	242,303	-0,135352	22,730000	57,580000
1,880682	-0,598697	243,805	-0,135335	22,740000	57,565000
1,870639	-0,158262	245,307	-0,135160	22,740000	57,565000
1,860682	-0,307936	246,814	-0,135219	22,740000	57,565000
1,850629	-0,249048	248,316	-0,135196	22,730000	57,525000
1,840668	-0,257636	249,823	-0,135199	22,730000	57,565000
1,833989	-0,224511	250,825	-0,135186	22,730000	57,565000