File: Nanoindentation Datenauswertung/data/PDMS/EM-PDMS-50-10-50-0,5um-2
Quasi static measurement routine
Tip parameters (shape,radius, material...)
15.08.2022

Piezo position[nm]	MEMS displ.[nm]	Time[ms]	Cap [pf]	Temp [°C]	Rh [%]
eoh
2,119912	-0,129568	0,154	-0,106029	22,350000	52,710000
2,126374	-0,779810	0,835	-0,106294	22,350000	52,710000
2,132890	-0,260337	1,521	-0,106083	22,350000	52,710000
2,139443	-0,323921	2,174	-0,106108	22,360000	52,710000
2,145936	-0,260337	2,827	-0,106083	22,360000	52,710000
2,152393	-0,064784	3,492	-0,106003	22,360000	52,710000
2,158973	-0,323921	4,153	-0,106108	22,360000	52,700000
2,165398	-0,260337	4,803	-0,106083	22,360000	52,700000
2,171918	-0,260337	5,455	-0,106083	22,360000	52,700000
2,178449	-0,519474	6,110	-0,106188	22,350000	52,685000
2,184971	-0,323921	6,761	-0,106108	22,350000	52,685000
2,191514	-0,389905	7,415	-0,106135	22,350000	52,685000
2,197909	-0,715026	8,071	-0,106268	22,360000	52,700000
2,204440	-0,631047	8,726	-0,106233	22,360000	52,700000
2,210940	-0,323921	9,384	-0,106108	22,360000	52,700000
2,217389	0,325121	10,044	-0,105844	22,360000	52,700000
2,223886	-0,260337	10,707	-0,106083	22,360000	52,700000
2,230428	-0,323921	11,360	-0,106108	22,360000	52,700000
2,236930	0,195552	12,014	-0,105897	22,350000	52,725000
2,243406	0,000000	12,666	-0,105977	22,350000	52,725000
2,249941	-0,715026	13,317	-0,106268	22,350000	52,725000
2,256432	-0,779810	13,974	-0,106294	22,360000	52,710000
2,262894	-0,323921	14,643	-0,106108	22,360000	52,710000
2,269463	-0,260337	15,324	-0,106083	22,360000	52,710000
2,275882	-0,454689	15,985	-0,106162	22,350000	52,685000
2,282361	-0,715026	16,640	-0,106268	22,350000	52,685000
2,288956	-0,650242	17,295	-0,106241	22,350000	52,685000
2,295476	-0,519474	17,960	-0,106188	22,350000	52,685000
2,301909	-3,900251	18,628	-0,107564	22,350000	52,685000
2,308429	-1,300484	19,288	-0,106506	22,350000	52,685000
2,314966	1,106131	19,948	-0,105526	22,360000	52,700000
2,321372	4,551693	20,648	-0,104124	22,360000	52,700000
2,327868	6,436435	21,322	-0,103357	22,360000	52,700000
2,334402	9,687644	21,991	-0,102034	22,370000	52,715000
2,340910	12,418180	22,655	-0,100922	22,370000	52,715000
2,347463	15,083932	23,353	-0,099837	22,370000	52,715000
2,353942	16,253647	24,066	-0,099361	22,360000	52,710000
2,360432	19,765193	24,730	-0,097932	22,360000	52,710000
2,366913	22,820850	25,408	-0,096688	22,360000	52,710000
2,373441	24,056549	26,075	-0,096186	22,360000	52,700000
2,379879	28,086369	26,741	-0,094545	22,360000	52,700000
2,386432	30,752121	27,399	-0,093460	22,360000	52,700000
2,392864	32,833615	28,082	-0,092613	22,360000	52,700000
2,399367	35,433383	28,762	-0,091555	22,360000	52,700000
2,405923	37,709229	29,464	-0,090629	22,360000	52,700000
2,412418	40,894454	30,123	-0,089333	22,360000	52,700000
2,418951	43,105517	30,815	-0,088433	22,360000	52,700000
2,425424	45,121027	31,473	-0,087612	22,360000	52,700000
2,431936	48,501804	32,135	-0,086236	22,360000	52,700000
2,438417	49,931857	32,789	-0,085654	22,360000	52,700000
2,444919	52,597608	33,457	-0,084569	22,360000	52,700000
2,451407	55,003023	34,110	-0,083590	22,350000	52,725000
2,457933	57,083317	34,775	-0,082744	22,350000	52,725000
2,464417	60,919984	35,458	-0,081182	22,350000	52,725000
2,470947	63,259415	36,140	-0,080230	22,350000	52,725000
2,477429	65,080572	36,791	-0,079489	22,350000	52,725000
2,483870	67,680340	37,460	-0,078431	22,350000	52,725000
2,490371	70,801981	38,139	-0,077160	22,360000	52,700000
2,496883	71,581791	38,809	-0,076843	22,360000	52,700000
2,503421	73,987206	39,478	-0,075864	22,360000	52,700000
2,509878	77,042863	40,140	-0,074620	22,360000	52,700000
2,516419	78,603684	40,793	-0,073985	22,360000	52,700000
2,522869	79,579046	41,443	-0,073588	22,360000	52,700000
2,529374	81,528572	42,139	-0,072794	22,360000	52,700000
2,535904	83,544082	42,797	-0,071974	22,360000	52,700000
2,542427	85,819929	43,467	-0,071048	22,360000	52,700000
2,548878	87,965007	44,141	-0,070175	22,360000	52,700000
2,555378	89,720180	44,799	-0,069460	22,360000	52,700000
2,561913	92,321147	45,454	-0,068402	22,360000	52,700000
2,568390	94,401442	46,123	-0,067555	22,360000	52,710000
2,574870	95,897478	46,797	-0,066946	22,360000	52,710000
2,581446	98,692798	47,452	-0,065809	22,360000	52,710000
2,587901	100,578739	48,151	-0,065041	22,350000	52,710000
2,594449	103,178507	48,803	-0,063983	22,350000	52,710000
2,600868	106,494501	49,489	-0,062633	22,350000	52,710000
2,607423	109,029484	50,153	-0,061602	22,350000	52,710000
2,613905	110,785857	50,841	-0,060887	22,350000	52,710000
2,619910	113,060504	51,498	-0,059961	22,350000	52,710000
2,619891	112,085141	52,160	-0,060358	22,360000	52,710000
2,619855	112,411462	52,831	-0,060225	22,360000	52,710000
2,619839	110,525520	53,499	-0,060993	22,360000	52,710000
2,619880	111,305331	54,178	-0,060675	22,360000	52,700000
2,619892	110,915425	54,858	-0,060834	22,360000	52,700000
2,619859	111,695236	55,511	-0,060517	22,360000	52,700000
2,619950	110,329968	56,183	-0,061072	22,360000	52,710000
2,619835	109,745710	56,858	-0,061310	22,360000	52,710000
2,619867	109,614942	57,536	-0,061363	22,360000	52,710000
2,619846	109,679726	58,190	-0,061337	22,350000	52,695000
2,619905	109,485373	58,859	-0,061416	22,350000	52,695000
2,619918	108,770347	59,514	-0,061707	22,350000	52,695000
2,619864	108,639579	60,180	-0,061760	22,350000	52,695000
2,619906	108,770347	60,855	-0,061707	22,350000	52,695000
2,619837	107,859769	61,519	-0,062078	22,350000	52,695000
2,615429	106,039811	62,192	-0,062818	22,360000	52,700000
2,608862	102,528265	62,869	-0,064248	22,360000	52,700000
2,602351	99,278256	63,554	-0,065570	22,360000	52,700000
2,595869	95,701925	64,216	-0,067026	22,360000	52,700000
2,589366	91,931242	64,872	-0,068561	22,360000	52,700000
2,582908	88,746017	65,543	-0,069857	22,360000	52,700000
2,576403	85,690360	66,216	-0,071101	22,360000	52,700000
2,569877	82,439151	66,900	-0,072424	22,360000	52,700000
2,563401	79,123157	67,568	-0,073773	22,370000	52,715000
2,556864	76,588174	68,223	-0,074805	22,370000	52,715000
2,550373	73,401749	68,874	-0,076102	22,370000	52,715000
2,543886	70,996334	69,559	-0,077081	22,370000	52,715000
2,537345	66,250288	70,220	-0,079013	22,360000	52,700000
2,530884	63,584536	70,894	-0,080098	22,360000	52,700000
2,524415	60,203758	71,574	-0,081474	22,370000	52,715000
2,517920	58,200246	72,244	-0,082289	22,370000	52,715000
2,511422	54,223213	72,924	-0,083908	22,370000	52,715000
2,504939	50,386546	73,578	-0,085469	22,370000	52,715000
2,498388	48,045915	74,232	-0,086422	22,370000	52,715000
2,491851	45,510932	74,902	-0,087454	22,370000	52,715000
2,485416	42,715612	75,570	-0,088591	22,370000	52,700000
2,478905	38,553824	76,226	-0,090285	22,370000	52,700000
2,472397	36,669082	76,924	-0,091052	22,370000	52,700000
2,465884	33,938546	77,618	-0,092164	22,360000	52,685000
2,459420	31,208010	78,300	-0,093275	22,360000	52,685000
2,452940	28,281922	78,975	-0,094466	22,360000	52,685000
2,446435	26,266412	79,629	-0,095286	22,360000	52,700000
2,439959	23,796213	80,329	-0,096292	22,360000	52,700000
2,433365	21,651134	81,003	-0,097165	22,360000	52,700000
2,426948	18,854615	81,660	-0,098303	22,360000	52,700000
2,420362	17,359778	82,322	-0,098911	22,360000	52,700000
2,413924	16,253647	82,984	-0,099361	22,360000	52,700000
2,407425	13,653879	83,662	-0,100419	22,360000	52,710000
2,400889	10,858559	84,333	-0,101557	22,360000	52,710000
2,394454	10,142333	85,010	-0,101849	22,360000	52,710000
2,387920	8,582713	85,679	-0,102483	22,360000	52,710000
2,381373	5,656624	86,381	-0,103674	22,360000	52,710000
2,374993	4,291356	87,078	-0,104230	22,360000	52,710000
2,368382	2,665752	87,731	-0,104892	22,360000	52,710000
2,361901	1,106131	88,411	-0,105526	22,360000	52,710000
2,355426	-0,260337	89,091	-0,106083	22,360000	52,710000
2,348983	-1,624405	89,742	-0,106638	22,360000	52,740000
2,342440	-3,705899	90,426	-0,107485	22,360000	52,740000
2,335932	-4,290157	91,105	-0,107723	22,360000	52,740000
2,329486	-5,980546	91,776	-0,108411	22,360000	52,740000
2,322918	-6,955908	92,470	-0,108808	22,360000	52,740000
2,316432	-8,711081	93,153	-0,109522	22,360000	52,740000
2,309909	-9,946781	93,806	-0,110025	22,370000	52,715000
2,303388	-10,986928	94,501	-0,110448	22,370000	52,715000
2,296942	-13,262774	95,191	-0,111375	22,370000	52,715000
2,290434	-13,782248	95,859	-0,111586	22,360000	52,685000
2,283906	-14,953163	96,547	-0,112062	22,360000	52,685000
2,277418	-16,058095	97,246	-0,112512	22,360000	52,685000
2,270927	-18,138389	97,933	-0,113359	22,360000	52,725000
2,264420	-15,212300	98,598	-0,112168	22,360000	52,725000
2,257898	-11,962291	99,293	-0,110845	22,360000	52,725000
2,251419	-9,556876	99,980	-0,109866	22,370000	52,715000
2,244980	-7,541366	100,633	-0,109046	22,370000	52,715000
2,238439	-4,810830	101,331	-0,107935	22,370000	52,715000
2,231932	-4,029820	102,028	-0,107617	22,360000	52,700000
2,225421	-2,665752	102,730	-0,107062	22,360000	52,700000
2,218895	-0,064784	103,399	-0,106003	22,360000	52,700000
2,212433	0,000000	104,079	-0,105977	22,360000	52,700000
2,205913	0,000000	104,770	-0,105977	22,360000	52,700000
2,199417	-0,909379	105,450	-0,106347	22,360000	52,700000
2,192920	-0,129568	106,146	-0,106029	22,370000	52,700000
2,186476	-0,454689	106,852	-0,106162	22,370000	52,700000
2,179882	-0,194353	107,554	-0,106056	22,370000	52,700000
2,173391	-0,194353	108,237	-0,106056	22,370000	52,700000
2,166897	-0,584258	108,944	-0,106214	22,370000	52,700000
2,160410	-0,260337	109,646	-0,106083	22,360000	52,700000
2,153940	-0,194353	110,334	-0,106056	22,360000	52,700000
2,147362	-0,519474	111,000	-0,106188	22,360000	52,700000
2,140911	-0,650242	111,652	-0,106241	22,360000	52,700000
2,134415	-0,129568	112,347	-0,106029	22,360000	52,700000
2,127906	-0,715026	113,011	-0,106268	22,360000	52,700000
2,121406	-0,715026	113,699	-0,106268	22,360000	52,700000
2,119884	-0,323921	113,851	-0,106108	22,360000	52,700000