File: Nanoindentation Datenauswertung/data/PDMS/EM-PDMS-50-10-50-0,8um-2
Quasi static measurement routine
Tip parameters (shape,radius, material...)
15.08.2022

Piezo position[nm]	MEMS displ.[nm]	Time[ms]	Cap [pf]	Temp [°C]	Rh [%]
eoh
2,559903	0,000000	0,214	-0,106108	22,370000	52,740000
2,570424	0,000000	0,878	-0,106108	22,370000	52,740000
2,580760	-0,585458	1,531	-0,106347	22,370000	52,730000
2,591151	0,063585	2,182	-0,106083	22,370000	52,730000
2,601586	-0,326321	2,835	-0,106241	22,370000	52,730000
2,611942	0,129568	3,489	-0,106056	22,370000	52,755000
2,622345	-0,585458	4,144	-0,106347	22,370000	52,755000
2,632803	0,000000	4,796	-0,106108	22,370000	52,755000
2,643120	0,129568	5,449	-0,106056	22,370000	52,755000
2,653530	-0,391105	6,151	-0,106268	22,370000	52,755000
2,663973	0,129568	6,803	-0,106056	22,370000	52,755000
2,674344	-0,326321	7,454	-0,106241	22,370000	52,715000
2,684750	-0,391105	8,106	-0,106268	22,370000	52,715000
2,695180	-0,260337	8,761	-0,106214	22,370000	52,715000
2,705509	-0,455889	9,417	-0,106294	22,370000	52,715000
2,715966	0,063585	10,077	-0,106083	22,370000	52,715000
2,726343	-0,195552	10,727	-0,106188	22,370000	52,715000
2,736731	0,389905	11,385	-0,105950	22,370000	52,730000
2,747089	-0,260337	12,038	-0,106214	22,370000	52,730000
2,757525	-0,845794	12,693	-0,106453	22,370000	52,730000
2,767939	-0,326321	13,345	-0,106241	22,370000	52,715000
2,778336	-0,195552	14,002	-0,106188	22,370000	52,715000
2,788744	-0,195552	14,654	-0,106188	22,370000	52,715000
2,799164	-0,065984	15,315	-0,106135	22,370000	52,730000
2,809518	-1,170915	15,972	-0,106585	22,370000	52,730000
2,819938	0,194353	16,630	-0,106029	22,370000	52,730000
2,830334	1,559621	17,295	-0,105474	22,370000	52,730000
2,840707	2,209863	17,958	-0,105209	22,370000	52,730000
2,851168	4,354941	18,630	-0,104336	22,370000	52,730000
2,861525	4,420925	19,292	-0,104309	22,370000	52,730000
2,871902	6,305666	19,975	-0,103542	22,370000	52,730000
2,882285	7,281029	20,644	-0,103145	22,370000	52,730000
2,892688	8,581513	21,313	-0,102616	22,370000	52,740000
2,903142	10,336686	21,971	-0,101901	22,370000	52,740000
2,913574	11,116496	22,646	-0,101584	22,370000	52,740000
2,923971	13,132006	23,323	-0,100764	22,370000	52,715000
2,934339	14,042585	23,991	-0,100393	22,370000	52,715000
2,944716	15,797758	24,655	-0,099679	22,370000	52,715000
2,955173	16,708337	25,314	-0,099308	22,370000	52,715000
2,965520	17,942836	25,987	-0,098806	22,370000	52,715000
2,975909	18,203173	26,653	-0,098700	22,370000	52,715000
2,986263	20,283467	27,317	-0,097853	22,370000	52,740000
2,996700	20,868925	28,001	-0,097615	22,370000	52,740000
3,007143	21,064477	28,662	-0,097535	22,370000	52,740000
3,017494	21,779503	29,376	-0,097244	22,370000	52,730000
3,027905	22,429745	30,031	-0,096979	22,370000	52,730000
3,038339	24,249702	30,684	-0,096239	22,370000	52,730000
3,048735	23,989366	31,340	-0,096345	22,370000	52,730000
3,059108	25,810523	32,021	-0,095604	22,370000	52,730000
3,069479	27,565696	32,677	-0,094889	22,370000	52,730000
3,079875	29,516422	33,332	-0,094095	22,370000	52,740000
3,090319	31,205611	34,004	-0,093408	22,370000	52,740000
3,100762	31,142026	34,667	-0,093434	22,370000	52,740000
3,111082	32,636863	35,326	-0,092825	22,370000	52,740000
3,121533	33,806578	35,978	-0,092349	22,370000	52,740000
3,131911	35,042278	36,635	-0,091846	22,370000	52,740000
3,142283	37,187356	37,292	-0,090973	22,370000	52,715000
3,152688	38,358271	37,968	-0,090497	22,370000	52,715000
3,163102	40,243013	38,623	-0,089729	22,370000	52,715000
3,173459	41,739049	39,277	-0,089121	22,370000	52,740000
3,183874	43,884127	39,939	-0,088248	22,370000	52,740000
3,194351	44,794706	40,604	-0,087877	22,370000	52,740000
3,204713	47,069353	41,257	-0,086951	22,370000	52,715000
3,215042	48,044716	41,917	-0,086554	22,370000	52,715000
3,225499	49,801088	42,583	-0,085839	22,370000	52,715000
3,235922	50,385346	43,237	-0,085602	22,380000	52,715000
3,246306	51,425493	43,891	-0,085178	22,380000	52,715000
3,256664	52,986314	44,548	-0,084543	22,380000	52,715000
3,266978	52,531624	45,210	-0,084728	22,380000	52,715000
3,277480	55,391729	45,874	-0,083564	22,380000	52,715000
3,287879	54,937039	46,555	-0,083749	22,380000	52,715000
3,298270	57,861928	47,223	-0,082559	22,370000	52,740000
3,308686	59,357964	47,875	-0,081950	22,370000	52,740000
3,319054	60,333327	48,531	-0,081553	22,370000	52,740000
3,329450	62,218069	49,197	-0,080786	22,370000	52,730000
3,339805	63,973242	49,850	-0,080071	22,370000	52,730000
3,350215	65,534062	50,502	-0,079436	22,370000	52,730000
3,359853	66,964114	51,169	-0,078854	22,360000	52,740000
3,359882	66,769762	51,826	-0,078933	22,360000	52,740000
3,359886	65,469278	52,481	-0,079462	22,360000	52,740000
3,359838	65,013389	53,132	-0,079648	22,360000	52,740000
3,359885	64,623484	53,791	-0,079807	22,360000	52,740000
3,359823	65,079373	54,445	-0,079621	22,360000	52,740000
3,359847	65,144157	55,110	-0,079595	22,360000	52,740000
3,359867	64,104010	55,779	-0,080018	22,360000	52,725000
3,359867	64,233578	56,442	-0,079965	22,360000	52,725000
3,359818	63,714105	57,093	-0,080177	22,360000	52,725000
3,359826	64,168794	57,745	-0,079992	22,370000	52,770000
3,359879	64,168794	58,410	-0,079992	22,370000	52,770000
3,359898	63,323000	59,078	-0,080336	22,370000	52,770000
3,359852	62,999079	59,733	-0,080468	22,370000	52,770000
3,359813	63,258216	60,393	-0,080362	22,370000	52,770000
3,359877	62,413621	61,046	-0,080706	22,370000	52,770000
3,352646	60,462895	61,708	-0,081500	22,370000	52,730000
3,342265	56,106755	62,361	-0,083273	22,370000	52,730000
3,331894	53,117082	63,024	-0,084490	22,370000	52,730000
3,321431	49,475967	63,680	-0,085972	22,370000	52,730000
3,311047	46,549879	64,342	-0,087163	22,370000	52,730000
3,300673	44,599153	64,995	-0,087957	22,370000	52,730000
3,290328	42,388091	65,652	-0,088856	22,370000	52,730000
3,279895	40,178229	66,311	-0,089756	22,370000	52,730000
3,269500	37,187356	66,965	-0,090973	22,370000	52,730000
3,259067	34,521604	67,619	-0,092058	22,380000	52,740000
3,248676	33,221121	68,304	-0,092587	22,380000	52,740000
3,238242	31,205611	68,992	-0,093408	22,380000	52,740000
3,227878	29,450438	69,649	-0,094122	22,370000	52,715000
3,217487	28,086369	70,304	-0,094677	22,370000	52,715000
3,207121	26,329997	70,956	-0,095392	22,370000	52,715000
3,196738	24,574823	71,608	-0,096106	22,370000	52,740000
3,186310	23,014003	72,263	-0,096742	22,370000	52,740000
3,175887	21,454382	72,914	-0,097376	22,370000	52,740000
3,165432	19,438872	73,589	-0,098197	22,370000	52,730000
3,155086	18,788631	74,254	-0,098461	22,370000	52,730000
3,144690	17,227810	74,925	-0,099097	22,370000	52,730000
3,134261	16,122879	75,591	-0,099546	22,370000	52,740000
3,123900	13,717464	76,257	-0,100525	22,370000	52,740000
3,113478	12,546549	76,913	-0,101002	22,370000	52,740000
3,103084	10,205918	77,591	-0,101955	22,370000	52,740000
3,092637	9,231755	78,255	-0,102351	22,370000	52,740000
3,082268	8,450745	78,910	-0,102669	22,370000	52,740000
3,071918	5,980546	79,578	-0,103674	22,360000	52,700000
3,061521	5,720209	80,234	-0,103780	22,360000	52,700000
3,051101	5,134751	80,899	-0,104019	22,360000	52,700000
3,040710	3,769483	81,557	-0,104574	22,370000	52,715000
3,030331	2,599768	82,210	-0,105050	22,370000	52,715000
3,019902	1,494836	82,872	-0,105500	22,370000	52,715000
3,009523	0,974163	83,524	-0,105712	22,370000	52,730000
2,999094	0,584258	84,193	-0,105871	22,370000	52,730000
2,988711	-0,716226	84,857	-0,106400	22,370000	52,730000
2,978338	-0,976562	85,521	-0,106506	22,370000	52,730000
2,967911	-1,300484	86,179	-0,106638	22,370000	52,730000
2,957477	-2,796520	86,854	-0,107247	22,370000	52,730000
2,947110	-2,275847	87,520	-0,107035	22,370000	52,700000
2,936739	-2,211062	88,174	-0,107008	22,370000	52,700000
2,926304	-2,211062	88,852	-0,107008	22,370000	52,700000
2,915946	-1,691589	89,537	-0,106797	22,370000	52,740000
2,905474	-2,600967	90,209	-0,107167	22,370000	52,740000
2,895071	-2,275847	90,867	-0,107035	22,370000	52,740000
2,884749	-3,641114	91,522	-0,107590	22,370000	52,740000
2,874323	-3,771883	92,189	-0,107644	22,370000	52,740000
2,863856	-4,486909	92,865	-0,107935	22,370000	52,740000
2,853527	-3,966235	93,526	-0,107723	22,370000	52,740000
2,843071	-4,032219	94,183	-0,107750	22,370000	52,740000
2,832688	-4,161788	94,864	-0,107802	22,370000	52,740000
2,822325	-6,242082	95,527	-0,108649	22,370000	52,740000
2,811955	-5,852177	96,181	-0,108490	22,370000	52,740000
2,801605	-4,551693	96,833	-0,107961	22,370000	52,740000
2,791153	-4,291356	97,504	-0,107855	22,380000	52,730000
2,780741	-1,950726	98,173	-0,106902	22,380000	52,730000
2,770270	-0,130768	98,827	-0,106162	22,380000	52,730000
2,759915	0,259137	99,510	-0,106003	22,370000	52,755000
2,749550	0,129568	100,174	-0,106056	22,370000	52,755000
2,739087	0,194353	100,834	-0,106029	22,370000	52,755000
2,728709	0,129568	101,521	-0,106056	22,370000	52,755000
2,718361	0,129568	102,174	-0,106056	22,370000	52,755000
2,707886	0,063585	102,852	-0,106083	22,370000	52,755000
2,697498	0,063585	103,522	-0,106083	22,370000	52,715000
2,687143	0,129568	104,183	-0,106056	22,370000	52,715000
2,676762	0,063585	104,874	-0,106083	22,370000	52,715000
2,666284	-0,326321	105,538	-0,106241	22,370000	52,730000
2,655927	0,000000	106,225	-0,106108	22,370000	52,730000
2,645541	0,063585	106,884	-0,106083	22,370000	52,730000
2,635161	-0,260337	107,543	-0,106214	22,370000	52,715000
2,624682	-0,391105	108,229	-0,106268	22,370000	52,715000
2,614356	-0,260337	108,892	-0,106214	22,370000	52,715000
2,603961	0,129568	109,565	-0,106056	22,370000	52,755000
2,593583	0,063585	110,236	-0,106083	22,370000	52,755000
2,583124	-0,391105	110,932	-0,106268	22,370000	52,755000
2,572741	0,129568	111,586	-0,106056	22,370000	52,730000
2,562335	0,129568	112,286	-0,106056	22,370000	52,730000
2,559885	-0,455889	112,437	-0,106294	22,370000	52,730000