File: Nanoindentation Datenauswertung/data/PDMS/EM-PDMS-50-10-50-1um-5
Quasi static measurement routine
Tip parameters (shape,radius, material...)
24.08.2022

Piezo position[nm]	MEMS displ.[nm]	Time[ms]	Cap [pf]	Temp [°C]	Rh [%]
eoh
2,551814	0,149674	0,243	-0,135781	22,700000	51,965000
2,565774	0,099374	0,943	-0,135801	22,700000	51,965000
2,579818	0,165623	1,644	-0,135775	22,700000	51,965000
2,593809	0,141086	2,347	-0,135785	22,700000	51,950000
2,607801	0,141086	3,051	-0,135785	22,700000	51,950000
2,621800	0,182799	3,751	-0,135768	22,700000	51,950000
2,635817	0,074837	4,452	-0,135811	22,700000	51,925000
2,649822	0,273585	5,153	-0,135732	22,700000	51,925000
2,663779	-0,017176	5,860	-0,135848	22,700000	51,925000
2,677774	-0,175438	6,562	-0,135911	22,700000	51,925000
2,691752	0,066249	7,265	-0,135814	22,700000	51,925000
2,705841	0,066249	7,967	-0,135814	22,700000	51,925000
2,719832	-0,083425	8,736	-0,135874	22,690000	51,965000
2,733849	-0,149674	9,441	-0,135900	22,690000	51,965000
2,747771	-0,116550	10,143	-0,135887	22,690000	51,965000
2,761800	0,090786	10,843	-0,135805	22,700000	51,925000
2,775772	-0,041712	11,546	-0,135857	22,700000	51,925000
2,789749	-0,257636	12,247	-0,135943	22,700000	51,925000
2,803798	-0,215923	12,949	-0,135927	22,700000	51,925000
2,817743	-0,066249	13,651	-0,135867	22,700000	51,925000
2,831756	-0,182799	14,352	-0,135914	22,700000	51,965000
2,845750	-0,391361	15,055	-0,135997	22,700000	51,965000
2,859805	-0,341061	15,757	-0,135977	22,700000	51,965000
2,873720	0,015949	16,457	-0,135834	22,710000	51,940000
2,887739	-0,365598	17,159	-0,135986	22,710000	51,940000
2,901772	-0,431847	17,861	-0,136013	22,710000	51,940000
2,915792	-0,541035	18,562	-0,136056	22,700000	51,935000
2,929814	-0,490735	19,262	-0,136036	22,700000	51,935000
2,943721	-0,548396	19,963	-0,136059	22,700000	51,935000
2,957705	-0,499323	20,664	-0,136040	22,690000	51,950000
2,971720	-0,706658	21,367	-0,136122	22,690000	51,950000
2,985741	-0,772908	22,070	-0,136148	22,690000	51,950000
2,999814	-0,856332	22,772	-0,136182	22,690000	51,950000
3,013796	-0,640409	23,473	-0,136096	22,690000	51,950000
3,027813	-0,623233	24,173	-0,136089	22,690000	51,950000
3,041724	-0,565572	24,877	-0,136066	22,700000	51,925000
3,055748	-1,138505	25,579	-0,136294	22,700000	51,925000
3,069774	-34,563688	26,281	-0,149597	22,700000	51,925000
3,083758	-67,764359	26,982	-0,162811	22,700000	51,925000
3,097753	-62,271808	27,687	-0,160625	22,700000	51,925000
3,111733	-58,607245	28,391	-0,159167	22,690000	51,935000
3,125766	-52,498822	29,093	-0,156735	22,690000	51,935000
3,139775	-47,960751	29,795	-0,154929	22,690000	51,935000
3,153728	-41,993414	30,497	-0,152554	22,690000	51,935000
3,167701	-37,056621	31,199	-0,150589	22,690000	51,935000
3,181704	-31,506409	31,899	-0,148380	22,690000	51,935000
3,195780	-25,297385	32,602	-0,145909	22,700000	51,935000
3,209762	-19,488311	33,305	-0,143597	22,700000	51,935000
3,223713	-13,238801	34,007	-0,141110	22,700000	51,935000
3,237747	-6,466659	34,709	-0,138415	22,700000	51,950000
3,251733	0,821981	35,410	-0,135514	22,700000	51,950000
3,265678	6,373420	36,113	-0,133304	22,700000	51,950000
3,279715	13,362712	36,815	-0,130522	22,690000	51,965000
3,293693	20,028119	37,517	-0,127870	22,690000	51,965000
3,307672	26,552440	38,218	-0,125273	22,690000	51,965000
3,321778	34,172326	38,920	-0,122240	22,690000	51,910000
3,335688	39,441593	39,623	-0,120143	22,690000	51,910000
3,349659	47,403767	40,325	-0,116974	22,690000	51,910000
3,363652	53,728113	41,027	-0,114457	22,690000	51,950000
3,377683	44,453223	41,729	-0,118148	22,690000	51,950000
3,391663	35,253170	42,431	-0,121810	22,690000	51,925000
3,405648	41,894041	43,132	-0,119167	22,690000	51,925000
3,419663	49,531103	43,834	-0,116127	22,690000	51,925000
3,433650	56,844280	44,539	-0,113217	22,690000	51,950000
3,447652	61,323463	45,240	-0,111434	22,690000	51,950000
3,461706	66,310557	45,946	-0,109449	22,690000	51,950000
3,475657	71,122213	46,646	-0,107534	22,700000	51,950000
3,489673	76,283517	47,350	-0,105480	22,700000	51,950000
3,503671	83,196745	48,052	-0,102729	22,700000	51,950000
3,517695	89,778728	48,754	-0,100109	22,700000	51,950000
3,531715	98,463509	49,458	-0,096652	22,700000	51,950000
3,545658	105,860111	50,158	-0,093708	22,700000	51,950000
3,551670	108,046335	50,860	-0,092838	22,700000	51,935000
3,551608	107,056277	51,560	-0,093232	22,700000	51,935000
3,551673	106,201172	52,261	-0,093573	22,700000	51,935000
3,551703	106,093210	52,963	-0,093616	22,700000	51,935000
3,551652	105,560763	53,664	-0,093828	22,700000	51,935000
3,551603	105,162041	54,368	-0,093986	22,690000	51,950000
3,551671	104,530219	55,069	-0,094238	22,690000	51,950000
3,551670	104,356009	55,771	-0,094307	22,690000	51,950000
3,551678	104,497095	56,472	-0,094251	22,700000	51,910000
3,551661	104,131497	57,176	-0,094396	22,700000	51,910000
3,551685	104,115548	57,878	-0,094403	22,700000	51,910000
3,551623	103,957286	58,580	-0,094466	22,690000	51,935000
3,551698	103,607638	59,280	-0,094605	22,690000	51,935000
3,551716	103,259216	59,980	-0,094744	22,690000	51,935000
3,547642	101,398104	60,680	-0,095484	22,690000	51,950000
3,533712	92,131802	61,381	-0,099172	22,690000	51,950000
3,519654	83,321883	62,083	-0,102679	22,690000	51,950000
3,505645	74,487427	62,786	-0,106195	22,690000	51,950000
3,491642	64,282595	63,487	-0,110256	22,690000	51,950000
3,477725	57,376727	64,189	-0,113005	22,690000	51,950000
3,463724	48,234336	64,892	-0,116644	22,690000	51,965000
3,449604	39,126296	65,596	-0,120269	22,690000	51,965000
3,435658	31,031623	66,298	-0,123490	22,690000	51,965000
3,421657	22,978663	67,002	-0,126695	22,690000	51,965000
3,407728	13,870623	67,706	-0,130320	22,690000	51,965000
3,393682	6,831030	68,409	-0,133122	22,690000	51,965000
3,379757	-2,360435	69,110	-0,136780	22,690000	51,965000
3,365693	-10,197472	69,810	-0,139899	22,690000	51,965000
3,351718	-16,986789	70,514	-0,142602	22,690000	51,965000
3,337807	-24,050919	71,218	-0,145413	22,690000	51,965000
3,323661	-31,422984	71,920	-0,148347	22,690000	51,965000
3,309739	-38,602436	72,623	-0,151205	22,690000	51,965000
3,295703	-47,170668	73,326	-0,154615	22,690000	51,965000
3,281728	-52,082924	74,027	-0,156570	22,690000	51,965000
3,267708	-57,891999	74,729	-0,158882	22,690000	51,975000
3,253667	-64,258058	75,429	-0,161416	22,690000	51,975000
3,239756	-68,538493	76,130	-0,163119	22,690000	51,975000
3,225697	-73,731696	76,831	-0,165186	22,690000	51,935000
3,211729	-79,956668	77,531	-0,167664	22,690000	51,935000
3,197762	-85,234522	78,234	-0,169764	22,690000	51,935000
3,183672	-92,015252	78,939	-0,172463	22,700000	51,965000
3,169780	-99,394678	79,640	-0,175400	22,700000	51,965000
3,155748	-106,526284	80,341	-0,178238	22,700000	51,925000
3,141746	-114,445519	81,043	-0,181390	22,700000	51,925000
3,127728	-121,443399	81,743	-0,184175	22,700000	51,925000
3,113750	-127,884295	82,445	-0,186739	22,700000	51,925000
3,099762	-134,649075	83,148	-0,189431	22,700000	51,925000
3,085769	-141,671492	83,849	-0,192226	22,700000	51,925000
3,071765	-148,552823	84,551	-0,194965	22,700000	51,925000
3,057763	-156,971380	85,253	-0,198315	22,700000	51,925000
3,043759	-162,564532	85,955	-0,200542	22,700000	51,925000
3,029802	-170,318143	86,657	-0,203627	22,690000	51,950000
3,015779	-176,111269	87,358	-0,205933	22,690000	51,950000
3,001728	-183,764280	88,059	-0,208979	22,690000	51,950000
2,987761	-189,266646	88,761	-0,211169	22,700000	51,910000
2,973768	-196,122213	89,462	-0,213897	22,700000	51,910000
2,959793	-201,574278	90,164	-0,216067	22,700000	51,910000
2,945743	-207,350228	90,867	-0,218366	22,700000	51,910000
2,931758	-213,740823	91,568	-0,220910	22,700000	51,910000
2,917810	-216,233757	92,271	-0,221902	22,700000	51,910000
2,903759	-155,740863	92,973	-0,197826	22,690000	51,965000
2,889776	-148,411736	93,674	-0,194909	22,690000	51,965000
2,875793	-148,020375	94,376	-0,194753	22,690000	51,965000
2,861764	-149,491353	95,078	-0,195338	22,690000	51,965000
2,847777	-150,389398	95,781	-0,195696	22,690000	51,965000
2,833832	-152,018638	96,483	-0,196344	22,690000	51,925000
2,819792	-152,998881	97,184	-0,196734	22,690000	51,925000
2,805786	-151,045756	97,885	-0,195957	22,690000	51,925000
2,791738	-137,591031	98,588	-0,190602	22,690000	51,925000
2,777732	-110,265684	99,288	-0,179727	22,690000	51,925000
2,763785	-0,233099	99,990	-0,135934	22,690000	51,925000
2,749825	-0,182799	100,690	-0,135914	22,690000	51,950000
2,735752	0,008588	101,394	-0,135837	22,690000	51,950000
2,721806	-0,100601	102,096	-0,135881	22,690000	51,950000
2,707807	-0,224511	102,798	-0,135930	22,690000	51,950000
2,693780	-0,092013	103,501	-0,135877	22,690000	51,950000
2,679802	-0,024537	104,203	-0,135851	22,690000	51,950000
2,665857	0,074837	104,903	-0,135811	22,690000	51,935000
2,651764	0,099374	105,606	-0,135801	22,690000	51,935000
2,637799	-0,041712	106,308	-0,135857	22,690000	51,935000
2,623775	0,149674	107,010	-0,135781	22,700000	51,925000
2,609768	-0,074837	107,711	-0,135871	22,700000	51,925000
2,595791	0,149674	108,415	-0,135781	22,700000	51,925000
2,581762	0,257636	109,117	-0,135738	22,700000	51,925000
2,567783	-0,017176	109,820	-0,135848	22,700000	51,925000
2,553768	0,074837	110,526	-0,135811	22,690000	51,935000
2,551800	0,182799	110,627	-0,135768	22,690000	51,935000