File: Nanoindentation Datenauswertung/data/PDMS/EM-PDMS-75-10-75-1,5um-1
Quasi static measurement routine
Tip parameters (shape,radius, material...)
24.08.2022

Piezo position[nm]	MEMS displ.[nm]	Time[ms]	Cap [pf]	Temp [°C]	Rh [%]
eoh
2,551863	0,107962	0,214	-0,135732	22,700000	51,965000
2,571909	-0,141086	1,218	-0,135831	22,690000	51,935000
2,591870	0,133725	2,222	-0,135722	22,690000	51,935000
2,611886	-0,125137	3,222	-0,135825	22,700000	51,925000
2,631893	0,025764	4,223	-0,135765	22,700000	51,925000
2,651888	-0,190160	5,224	-0,135851	22,700000	51,925000
2,671827	-0,033125	6,225	-0,135788	22,700000	51,925000
2,691850	-0,341061	7,228	-0,135911	22,700000	51,935000
2,711916	0,008588	8,233	-0,135771	22,700000	51,935000
2,731846	-0,273585	9,234	-0,135884	22,700000	51,935000
2,751846	-0,099374	10,238	-0,135814	22,700000	51,935000
2,771958	-0,390134	11,242	-0,135930	22,690000	51,935000
2,791867	-0,332473	12,384	-0,135907	22,690000	51,935000
2,811837	-0,531221	13,385	-0,135986	22,690000	51,935000
2,831856	-0,231872	14,387	-0,135867	22,690000	51,910000
2,851834	-0,556984	15,389	-0,135997	22,690000	51,910000
2,871809	-0,548396	16,393	-0,135993	22,700000	51,935000
2,891877	-0,531221	17,394	-0,135986	22,700000	51,935000
2,911806	-0,680895	18,398	-0,136046	22,690000	51,910000
2,931802	-0,830569	19,402	-0,136105	22,690000	51,910000
2,951822	-1,112741	20,406	-0,136218	22,690000	51,910000
2,971847	-0,722607	21,410	-0,136063	22,690000	51,910000
2,991893	-1,079617	22,413	-0,136205	22,700000	51,975000
3,011819	-1,437853	23,416	-0,136347	22,700000	51,975000
3,031832	-1,520051	24,417	-0,136380	22,690000	51,950000
3,051792	-1,878288	25,420	-0,136522	22,690000	51,950000
3,071816	-69,510148	26,421	-0,163440	22,690000	51,950000
3,091866	-62,030121	27,421	-0,160463	22,690000	51,950000
3,111853	-55,215040	28,422	-0,157750	22,690000	51,950000
3,131796	-46,738821	29,424	-0,154377	22,690000	51,950000
3,151754	-39,791241	30,431	-0,151612	22,690000	51,950000
3,171804	-31,115048	31,436	-0,148159	22,690000	51,950000
3,191813	-24,050919	32,440	-0,145347	22,700000	51,925000
3,211740	-14,534342	33,443	-0,141560	22,700000	51,925000
3,231799	-6,615107	34,444	-0,138408	22,690000	51,910000
3,251764	2,576358	35,449	-0,134750	22,690000	51,910000
3,271727	11,369101	36,455	-0,131250	22,700000	51,925000
3,291786	20,626816	37,457	-0,127565	22,700000	51,925000
3,311764	30,650077	38,462	-0,123576	22,690000	51,950000
3,331796	39,733580	39,464	-0,119961	22,690000	51,950000
3,351789	47,836840	40,467	-0,116736	22,690000	51,950000
3,371763	57,808574	41,469	-0,112767	22,690000	51,950000
3,391773	35,719368	42,471	-0,121559	22,700000	51,935000
3,411794	46,830834	43,474	-0,117136	22,700000	51,935000
3,431723	55,665289	44,481	-0,113620	22,690000	51,935000
3,451780	62,155259	45,484	-0,111037	22,690000	51,935000
3,471719	68,637867	46,486	-0,108457	22,690000	51,935000
3,491775	77,505447	47,488	-0,104928	22,690000	51,935000
3,511742	88,881910	48,491	-0,100400	22,690000	51,885000
3,531737	98,555522	49,493	-0,096550	22,690000	51,885000
3,551680	108,404572	50,495	-0,092630	22,700000	51,895000
3,571772	119,955245	51,498	-0,088033	22,700000	51,895000
3,591753	131,216385	52,501	-0,083551	22,700000	51,950000
3,611723	142,643147	53,505	-0,079003	22,700000	51,950000
3,631742	154,078498	54,508	-0,074452	22,700000	51,950000
3,651703	166,728417	55,512	-0,069417	22,700000	51,950000
3,671729	177,697570	56,513	-0,065051	22,690000	51,965000
3,691696	189,374607	57,514	-0,060404	22,690000	51,965000
3,711733	201,292105	58,518	-0,055661	22,690000	51,965000
3,731737	214,762779	59,520	-0,050299	22,690000	51,965000
3,751725	227,113350	60,521	-0,045384	22,690000	51,935000
3,771734	237,525518	61,522	-0,041240	22,690000	51,935000
3,791677	250,415898	62,526	-0,036109	22,710000	51,955000
3,811681	261,236603	63,531	-0,031803	22,710000	51,955000
3,831725	273,427685	64,537	-0,026951	22,690000	51,910000
3,851677	287,016135	65,542	-0,021542	22,690000	51,910000
3,871716	299,273467	66,546	-0,016664	22,690000	51,910000
3,891686	310,667105	67,550	-0,012129	22,690000	51,910000
3,911692	322,668028	68,552	-0,007353	22,700000	51,910000
3,931716	336,314139	69,554	-0,001922	22,700000	51,910000
3,951677	348,689247	70,556	0,003003	22,700000	51,925000
3,971680	360,904866	71,562	0,007865	22,700000	51,925000
3,991646	371,850709	72,565	0,012222	22,700000	51,925000
4,011662	384,175516	73,567	0,017127	22,700000	51,925000
4,031630	397,505104	74,571	0,022432	22,690000	51,935000
4,051709	409,970998	75,573	0,027394	22,690000	51,935000
4,051661	405,881949	76,577	0,025766	22,700000	51,925000
4,051706	404,893118	77,580	0,025373	22,700000	51,925000
4,051649	404,154562	78,582	0,025079	22,690000	51,935000
4,051719	403,705539	79,584	0,024900	22,690000	51,935000
4,051677	403,073718	80,584	0,024648	22,680000	51,910000
4,051620	402,915456	81,586	0,024585	22,680000	51,910000
4,051622	402,640645	82,588	0,024476	22,700000	51,965000
4,051751	402,109424	83,591	0,024265	22,700000	51,965000
4,051656	401,794127	84,595	0,024139	22,690000	51,925000
4,051678	401,719290	85,596	0,024109	22,690000	51,925000
4,031643	388,853447	86,598	0,018989	22,690000	51,925000
4,011632	374,260217	87,601	0,013181	22,690000	51,925000
3,991685	360,455844	88,601	0,007687	22,690000	51,925000
3,971676	347,375304	89,605	0,002480	22,690000	51,925000
3,951694	335,267647	90,610	-0,002338	22,690000	51,965000
3,931721	321,820283	91,612	-0,007690	22,690000	51,965000
3,911668	308,872242	92,616	-0,012844	22,690000	51,925000
3,891688	296,216188	93,618	-0,017881	22,690000	51,925000
3,871704	282,121054	94,621	-0,023491	22,690000	51,910000
3,851694	270,544618	95,624	-0,028098	22,690000	51,910000
3,831622	257,662826	96,626	-0,033225	22,690000	51,935000
3,811645	245,313481	97,631	-0,038140	22,690000	51,935000
3,791684	231,368022	98,632	-0,043690	22,700000	51,895000
3,771700	219,998920	99,637	-0,048215	22,700000	51,895000
3,751802	206,726994	100,641	-0,053498	22,700000	51,895000
3,731682	194,477024	101,644	-0,058373	22,700000	51,895000
3,711753	182,526402	102,650	-0,063129	22,700000	51,950000
3,691761	170,342680	103,653	-0,067979	22,700000	51,950000
3,671731	156,438933	104,655	-0,073512	22,700000	51,950000
3,651702	144,106764	105,657	-0,078420	22,700000	51,950000
3,631752	133,086085	106,659	-0,082807	22,690000	51,950000
3,611751	121,359974	107,663	-0,087474	22,690000	51,950000
3,591750	107,731038	108,667	-0,092898	22,690000	51,935000
3,571665	96,304275	109,671	-0,097446	22,690000	51,935000
3,551760	85,957129	110,673	-0,101564	22,690000	51,950000
3,531775	74,911913	111,674	-0,105960	22,690000	51,950000
3,511751	64,191809	112,676	-0,110227	22,690000	51,950000
3,491737	52,980969	113,681	-0,114688	22,690000	51,950000
3,471724	41,570155	114,682	-0,119230	22,700000	51,935000
3,451780	29,943418	115,682	-0,123857	22,700000	51,935000
3,431762	17,353614	116,686	-0,128868	22,690000	51,910000
3,411806	6,507145	117,687	-0,133185	22,690000	51,910000
3,391804	-4,155298	118,691	-0,137429	22,700000	51,965000
3,371794	-15,083965	119,695	-0,141778	22,700000	51,965000
3,351780	-27,250510	120,697	-0,146621	22,690000	51,965000
3,331758	-36,508225	121,700	-0,150305	22,690000	51,965000
3,311761	-47,785313	122,703	-0,154793	22,690000	51,950000
3,291817	-57,384088	123,708	-0,158614	22,690000	51,950000
3,271728	-67,374225	124,714	-0,162590	22,690000	51,950000
3,251811	-74,462891	125,716	-0,165411	22,690000	51,950000
3,231797	-83,255634	126,718	-0,168911	22,700000	51,965000
3,211808	-88,432887	127,719	-0,170971	22,700000	51,965000
3,191832	-96,012288	128,724	-0,173988	22,690000	51,950000
3,171841	-103,791663	129,726	-0,177084	22,690000	51,950000
3,151852	-113,414975	130,728	-0,180914	22,690000	51,925000
3,131848	-124,709240	131,732	-0,185409	22,690000	51,925000
3,111854	-133,493395	132,733	-0,188905	22,690000	51,925000
3,091802	-144,314100	133,734	-0,193212	22,690000	51,925000
3,071818	-153,904287	134,740	-0,197029	22,690000	51,925000
3,051855	-163,985209	135,743	-0,201041	22,690000	51,925000
3,031849	-172,628278	136,745	-0,204481	22,700000	51,910000
3,011857	-181,711782	137,750	-0,208096	22,700000	51,910000
2,991810	-190,836997	138,754	-0,211728	22,690000	51,925000
2,971859	-200,717945	139,755	-0,215661	22,690000	51,925000
2,951819	-208,297346	140,758	-0,218677	22,700000	51,925000
2,931857	-217,663022	141,761	-0,222405	22,700000	51,925000
2,911935	-222,690601	142,763	-0,224406	22,700000	51,895000
2,891877	-156,322383	143,765	-0,197991	22,700000	51,895000
2,871818	-151,070293	144,769	-0,195901	22,700000	51,895000
2,851931	-152,290996	145,773	-0,196387	22,700000	51,895000
2,831907	-153,629476	146,776	-0,196919	22,700000	51,910000
2,811879	-154,020837	147,783	-0,197075	22,700000	51,910000
2,791857	-139,617767	148,783	-0,191343	22,690000	51,925000
2,771915	-0,656358	149,789	-0,136036	22,690000	51,925000
2,751872	-0,581521	150,793	-0,136006	22,690000	51,935000
2,731868	-0,515272	151,796	-0,135980	22,690000	51,935000
2,711805	-0,781495	152,798	-0,136086	22,690000	51,935000
2,691916	-0,515272	153,800	-0,135980	22,690000	51,935000
2,671812	-0,548396	154,801	-0,135993	22,700000	51,925000
2,651868	-0,498096	155,803	-0,135973	22,700000	51,925000
2,631829	-0,747144	156,804	-0,136072	22,700000	51,925000
2,611880	-0,423259	157,808	-0,135943	22,700000	51,925000
2,591915	-0,398722	158,812	-0,135934	22,690000	51,885000
2,571854	-0,182799	159,815	-0,135848	22,690000	51,885000
2,551887	-0,306709	160,817	-0,135897	22,690000	51,925000