File: Nanoindentation Datenauswertung/data/PDMS/EM-PDMS-50-10-50-0,3um
Quasi static measurement routine
Tip parameters (shape,radius, material...)
12.08.2022

Piezo position[nm]	MEMS displ.[nm]	Time[ms]	Cap [pf]	Temp [°C]	Rh [%]
eoh
2,050077	0,194353	0,176	-0,106559	22,340000	47,360000
2,053954	0,909379	0,877	-0,106268	22,340000	47,360000
2,057848	0,974163	1,531	-0,106241	22,340000	47,360000
2,061752	0,454689	2,191	-0,106453	22,350000	47,335000
2,065639	0,389905	2,846	-0,106479	22,350000	47,335000
2,069530	1,040147	3,506	-0,106214	22,350000	47,335000
2,073409	0,974163	4,172	-0,106241	22,340000	47,350000
2,077345	1,040147	4,825	-0,106214	22,340000	47,350000
2,081247	1,169716	5,479	-0,106162	22,340000	47,350000
2,085119	1,169716	6,136	-0,106162	22,340000	47,350000
2,089034	0,259137	6,790	-0,106532	22,340000	47,350000
2,092927	1,364068	7,441	-0,106083	22,340000	47,350000
2,096880	1,364068	8,096	-0,106083	22,350000	47,335000
2,100758	0,844595	8,747	-0,106294	22,350000	47,335000
2,104658	0,844595	9,401	-0,106294	22,350000	47,335000
2,108564	0,715026	10,054	-0,106347	22,340000	47,350000
2,112476	0,584258	10,705	-0,106400	22,340000	47,350000
2,116329	0,779810	11,359	-0,106320	22,340000	47,350000
2,120273	1,040147	12,013	-0,106214	22,340000	47,350000
2,124123	0,650242	12,669	-0,106373	22,340000	47,350000
2,128045	0,974163	13,322	-0,106241	22,340000	47,350000
2,131966	0,715026	13,976	-0,106347	22,340000	47,335000
2,135852	1,040147	14,631	-0,106214	22,340000	47,335000
2,139802	0,259137	15,285	-0,106532	22,340000	47,335000
2,143622	0,844595	15,939	-0,106294	22,340000	47,320000
2,147530	1,169716	16,593	-0,106162	22,340000	47,320000
2,151467	1,169716	17,248	-0,106162	22,340000	47,320000
2,155356	0,844595	17,903	-0,106294	22,340000	47,335000
2,159188	1,690389	18,558	-0,105950	22,340000	47,335000
2,163144	0,974163	19,214	-0,106241	22,340000	47,335000
2,167058	0,844595	19,867	-0,106294	22,340000	47,335000
2,170915	0,844595	20,527	-0,106294	22,340000	47,335000
2,174831	0,650242	21,180	-0,106373	22,340000	47,335000
2,178744	0,715026	21,834	-0,106347	22,340000	47,350000
2,182637	0,909379	22,487	-0,106268	22,340000	47,350000
2,186572	0,194353	23,146	-0,106559	22,340000	47,350000
2,190422	0,323921	23,799	-0,106506	22,340000	47,350000
2,194332	1,300484	24,457	-0,106108	22,340000	47,350000
2,198244	0,064784	25,118	-0,106611	22,340000	47,350000
2,202106	0,519474	25,773	-0,106426	22,340000	47,335000
2,206005	0,909379	26,425	-0,106268	22,340000	47,335000
2,209914	0,259137	27,079	-0,106532	22,340000	47,335000
2,213816	0,715026	27,732	-0,106347	22,350000	47,350000
2,217680	0,650242	28,387	-0,106373	22,350000	47,350000
2,221631	0,454689	29,041	-0,106453	22,350000	47,350000
2,225545	-2,926088	29,695	-0,107829	22,350000	47,350000
2,229385	-1,625605	30,360	-0,107299	22,340000	47,335000
2,233351	-1,821157	31,014	-0,107379	22,340000	47,335000
2,237243	0,000000	31,668	-0,106638	22,340000	47,335000
2,241141	1,040147	32,339	-0,106214	22,340000	47,310000
2,245036	2,145078	32,994	-0,105765	22,340000	47,310000
2,249012	3,314794	33,648	-0,105289	22,340000	47,310000
2,252855	4,419725	34,304	-0,104839	22,340000	47,320000
2,256840	5,005183	34,971	-0,104601	22,340000	47,320000
2,260635	6,501219	35,644	-0,103992	22,340000	47,320000
2,264545	7,411797	36,301	-0,103621	22,340000	47,320000
2,268497	8,256392	36,967	-0,103277	22,340000	47,320000
2,272349	9,817212	37,628	-0,102642	22,340000	47,320000
2,276213	10,986928	38,299	-0,102166	22,340000	47,335000
2,280150	12,352196	38,952	-0,101610	22,340000	47,335000
2,284048	12,872869	39,631	-0,101398	22,340000	47,335000
2,287977	15,212300	40,296	-0,100446	22,340000	47,335000
2,291828	15,668189	40,955	-0,100261	22,340000	47,335000
2,295709	17,944036	41,619	-0,099334	22,340000	47,335000
2,299684	19,503657	42,283	-0,098700	22,340000	47,335000
2,303556	20,089114	42,951	-0,098461	22,340000	47,335000
2,307449	21,779503	43,617	-0,097773	22,340000	47,335000
2,311354	23,339124	44,284	-0,097139	22,350000	47,350000
2,315236	24,835160	44,937	-0,096530	22,350000	47,350000
2,319218	25,940091	45,623	-0,096080	22,350000	47,350000
2,323045	26,785886	46,281	-0,095736	22,350000	47,350000
2,326919	28,930964	46,945	-0,094863	22,350000	47,350000
2,330855	29,386853	47,602	-0,094677	22,350000	47,350000
2,334781	30,750921	48,281	-0,094122	22,350000	47,335000
2,338611	31,531931	48,936	-0,093804	22,350000	47,335000
2,342549	33,026768	49,598	-0,093196	22,350000	47,335000
2,346445	34,847925	50,253	-0,092455	22,350000	47,335000
2,350064	35,498167	50,926	-0,092190	22,350000	47,335000
2,350035	34,521604	51,583	-0,092587	22,350000	47,335000
2,350062	34,652373	52,246	-0,092534	22,340000	47,320000
2,350084	34,521604	52,901	-0,092587	22,340000	47,320000
2,350039	33,677010	53,568	-0,092931	22,340000	47,320000
2,350079	33,222320	54,236	-0,093116	22,340000	47,320000
2,350036	33,351889	54,901	-0,093063	22,340000	47,320000
2,350024	33,612226	55,559	-0,092958	22,340000	47,320000
2,350071	32,572078	56,212	-0,093381	22,350000	47,350000
2,350009	32,246958	56,867	-0,093513	22,350000	47,350000
2,350036	32,182173	57,521	-0,093540	22,350000	47,350000
2,350010	31,726284	58,193	-0,093725	22,340000	47,335000
2,350074	32,051405	58,875	-0,093593	22,340000	47,335000
2,350009	31,661500	59,530	-0,093751	22,340000	47,335000
2,350083	31,531931	60,186	-0,093804	22,340000	47,335000
2,350061	31,336379	60,860	-0,093884	22,340000	47,335000
2,347369	30,556569	61,513	-0,094201	22,340000	47,335000
2,343462	28,086369	62,168	-0,095207	22,350000	47,360000
2,339547	26,721101	62,820	-0,095762	22,350000	47,360000
2,335640	24,835160	63,481	-0,096530	22,350000	47,360000
2,331758	23,079987	64,148	-0,097244	22,340000	47,320000
2,327802	20,479020	64,821	-0,098303	22,340000	47,320000
2,323983	18,918199	65,474	-0,098938	22,340000	47,320000
2,320037	17,227810	66,144	-0,099626	22,350000	47,335000
2,316142	16,512784	66,825	-0,099917	22,350000	47,335000
2,312226	15,147516	67,484	-0,100473	22,350000	47,335000
2,308330	14,302922	68,156	-0,100816	22,350000	47,335000
2,304474	12,612533	68,820	-0,101504	22,350000	47,335000
2,300545	11,897507	69,490	-0,101795	22,350000	47,335000
2,296621	10,726591	70,163	-0,102272	22,350000	47,335000
2,292760	8,906634	70,828	-0,103013	22,350000	47,335000
2,288772	7,996055	71,484	-0,103383	22,350000	47,335000
2,284971	6,761556	72,141	-0,103886	22,350000	47,350000
2,281026	5,721409	72,816	-0,104309	22,350000	47,350000
2,277152	3,770683	73,477	-0,105103	22,350000	47,350000
2,273247	2,730536	74,132	-0,105526	22,340000	47,360000
2,269331	1,300484	74,808	-0,106108	22,340000	47,360000
2,265415	0,000000	75,473	-0,106638	22,340000	47,360000
2,261576	-1,106131	76,133	-0,107088	22,340000	47,360000
2,257652	-2,731736	76,803	-0,107750	22,340000	47,360000
2,253781	-2,990873	77,474	-0,107855	22,340000	47,360000
2,249874	-4,747245	78,136	-0,108570	22,350000	47,350000
2,245995	-5,201935	78,815	-0,108755	22,350000	47,350000
2,242043	-5,852177	79,489	-0,109020	22,350000	47,350000
2,238190	-7,282229	80,155	-0,109602	22,350000	47,335000
2,234219	-7,867687	80,824	-0,109840	22,350000	47,335000
2,230287	-8,126824	81,483	-0,109945	22,350000	47,335000
2,226449	-8,907834	82,138	-0,110263	22,350000	47,335000
2,222562	-9,558075	82,802	-0,110528	22,350000	47,335000
2,218580	-9,752428	83,464	-0,110607	22,350000	47,335000
2,214790	-10,467454	84,128	-0,110898	22,350000	47,350000
2,210838	-10,988128	84,793	-0,111110	22,350000	47,350000
2,207017	-10,988128	85,458	-0,111110	22,350000	47,350000
2,203057	-12,418180	86,135	-0,111692	22,350000	47,350000
2,199179	-13,523111	86,788	-0,112142	22,350000	47,350000
2,195266	-12,288611	87,442	-0,111639	22,350000	47,350000
2,191340	-13,263974	88,113	-0,112036	22,340000	47,360000
2,187476	-13,587895	88,782	-0,112168	22,340000	47,360000
2,183520	-13,979000	89,439	-0,112327	22,340000	47,360000
2,179670	-14,823595	90,095	-0,112671	22,340000	47,335000
2,175761	-15,213500	90,750	-0,112830	22,340000	47,335000
2,171843	-14,823595	91,423	-0,112671	22,340000	47,335000
2,167944	-16,124079	92,124	-0,113200	22,340000	47,350000
2,164054	-16,253647	92,786	-0,113253	22,340000	47,350000
2,160115	1,104931	93,449	-0,106188	22,340000	47,350000
2,156196	-0,065984	94,120	-0,106665	22,340000	47,335000
2,152367	0,909379	94,788	-0,106268	22,340000	47,335000
2,148420	0,323921	95,446	-0,106506	22,340000	47,335000
2,144564	0,974163	96,105	-0,106241	22,340000	47,335000
2,140618	0,909379	96,762	-0,106268	22,340000	47,335000
2,136724	1,040147	97,455	-0,106214	22,340000	47,335000
2,132783	1,364068	98,146	-0,106083	22,340000	47,335000
2,128899	0,779810	98,801	-0,106320	22,340000	47,335000
2,125055	0,909379	99,453	-0,106268	22,340000	47,335000
2,121146	1,104931	100,109	-0,106188	22,340000	47,320000
2,117281	0,715026	100,777	-0,106347	22,340000	47,320000
2,113381	0,974163	101,448	-0,106241	22,340000	47,320000
2,109455	1,040147	102,102	-0,106214	22,340000	47,350000
2,105500	0,650242	102,764	-0,106373	22,340000	47,350000
2,101673	0,909379	103,452	-0,106268	22,340000	47,350000
2,097758	0,909379	104,121	-0,106268	22,340000	47,350000
2,093853	0,974163	104,807	-0,106241	22,340000	47,350000
2,089936	0,650242	105,463	-0,106373	22,340000	47,350000
2,086040	0,779810	106,138	-0,106320	22,340000	47,360000
2,082180	0,779810	106,808	-0,106320	22,340000	47,360000
2,078274	1,104931	107,462	-0,106188	22,340000	47,360000
2,074310	0,715026	108,119	-0,106347	22,340000	47,360000
2,070493	0,584258	108,806	-0,106400	22,340000	47,360000
2,066552	0,323921	109,467	-0,106506	22,340000	47,360000
2,062682	0,650242	110,144	-0,106373	22,350000	47,320000
2,058772	1,040147	110,816	-0,106214	22,350000	47,320000
2,054848	0,779810	111,468	-0,106320	22,350000	47,320000
2,050990	1,234500	112,148	-0,106135	22,340000	47,335000
2,050120	0,064784	112,299	-0,106611	22,340000	47,335000