File: Nanoindentation Datenauswertung/data/PDMS/EM-PDMS-125-10-125-2,5um-2
Quasi static measurement routine
Tip parameters (shape,radius, material...)
25.08.2022

Piezo position[nm]	MEMS displ.[nm]	Time[ms]	Cap [pf]	Temp [°C]	Rh [%]
eoh
2,537965	-0,074837	0,211	-0,135629	0,000000	0,000000
2,568011	-0,066249	1,715	-0,135626	0,000000	0,000000
2,597918	0,033125	3,222	-0,135586	0,000000	0,000000
2,627994	-0,132498	4,722	-0,135652	0,000000	0,000000
2,657955	0,050300	6,226	-0,135580	0,000000	0,000000
2,687995	-0,224511	7,732	-0,135689	0,000000	0,000000
2,717971	-0,215923	9,234	-0,135686	0,000000	0,000000
2,747970	-0,365598	10,736	-0,135745	0,000000	0,000000
2,777954	-0,299348	12,241	-0,135719	0,000000	0,000000
2,807980	-0,341061	13,748	-0,135735	0,000000	0,000000
2,837924	-0,464971	15,254	-0,135785	0,000000	0,000000
2,867876	-0,548396	16,758	-0,135818	0,000000	0,000000
2,897961	-0,706658	18,262	-0,135881	0,000000	0,000000
2,927929	-0,747144	19,766	-0,135897	0,000000	0,000000
2,957905	-0,872281	21,270	-0,135947	0,000000	0,000000
2,987939	-0,964294	22,775	-0,135983	0,000000	0,000000
3,017918	-1,105380	24,278	-0,136040	0,000000	0,000000
3,047922	-1,354428	25,781	-0,136139	0,000000	0,000000
3,077886	-1,387553	27,283	-0,136152	0,000000	0,000000
3,107882	-2,043911	28,785	-0,136413	0,000000	0,000000
3,137974	-60,858492	30,289	-0,159821	0,000000	0,000000
3,167879	-51,110042	31,800	-0,155941	0,000000	0,000000
3,197941	-38,386513	33,305	-0,150877	0,000000	0,000000
3,227937	-26,776951	34,807	-0,146257	0,000000	0,000000
3,257908	-14,701192	36,313	-0,141451	0,000000	0,000000
3,287887	-0,224511	37,815	-0,135689	0,000000	0,000000
3,317847	12,449945	39,322	-0,130645	0,000000	0,000000
3,347911	25,521897	40,827	-0,125442	0,000000	0,000000
3,377958	8,385433	42,332	-0,132262	0,000000	0,000000
3,407780	22,705078	43,835	-0,126563	0,000000	0,000000
3,437820	26,910676	45,338	-0,124889	0,000000	0,000000
3,467841	41,213146	46,843	-0,119197	0,000000	0,000000
3,497801	56,995181	48,345	-0,112916	0,000000	0,000000
3,527803	72,693791	49,854	-0,106667	0,000000	0,000000
3,557845	89,896504	51,358	-0,099821	0,000000	0,000000
3,587789	107,565415	52,859	-0,092789	0,000000	0,000000
3,617857	124,252856	54,365	-0,086147	0,000000	0,000000
3,647767	141,878828	55,867	-0,079132	0,000000	0,000000
3,677759	159,739125	57,372	-0,072023	0,000000	0,000000
3,707849	178,587027	58,876	-0,064522	0,000000	0,000000
3,737810	196,520935	60,383	-0,057384	0,000000	0,000000
3,767758	213,507724	61,883	-0,050624	0,000000	0,000000
3,797801	231,401146	63,386	-0,043502	0,000000	0,000000
3,827808	250,050300	64,889	-0,036080	0,000000	0,000000
3,857779	268,250432	66,392	-0,028836	0,000000	0,000000
3,887813	286,384314	67,895	-0,021619	0,000000	0,000000
3,917755	305,830912	69,400	-0,013879	0,000000	0,000000
3,947789	323,799172	70,904	-0,006728	0,000000	0,000000
3,977816	343,228594	72,406	0,001005	0,000000	0,000000
4,007796	361,644649	73,911	0,008335	0,000000	0,000000
4,037771	378,756576	75,416	0,015146	0,000000	0,000000
4,067760	394,637985	76,922	0,021466	0,000000	0,000000
4,097784	413,095752	78,425	0,028813	0,000000	0,000000
4,127788	431,030887	79,933	0,035951	0,000000	0,000000
4,157751	449,962213	81,438	0,043485	0,000000	0,000000
4,187778	467,788160	82,942	0,050580	0,000000	0,000000
4,217774	487,027422	84,445	0,058237	0,000000	0,000000
4,247799	504,844781	85,952	0,065329	0,000000	0,000000
4,277668	523,469398	87,458	0,072741	0,000000	0,000000
4,307760	543,871702	88,963	0,080861	0,000000	0,000000
4,337749	561,049878	90,464	0,087698	0,000000	0,000000
4,367703	579,923543	91,969	0,095210	0,000000	0,000000
4,397665	598,306474	93,473	0,102526	0,000000	0,000000
4,427717	616,880791	94,982	0,109919	0,000000	0,000000
4,457686	635,886954	96,487	0,117483	0,000000	0,000000
4,487689	656,115048	97,993	0,125534	0,000000	0,000000
4,517668	673,376649	99,494	0,132404	0,000000	0,000000
4,547621	693,455068	101,002	0,140396	0,000000	0,000000
4,577675	711,796286	102,506	0,147695	0,000000	0,000000
4,607647	732,332316	104,011	0,155869	0,000000	0,000000
4,637650	750,332473	105,515	0,163033	0,000000	0,000000
4,667657	769,371761	107,020	0,170610	0,000000	0,000000
4,697676	788,436813	108,525	0,178198	0,000000	0,000000
4,727647	807,434389	110,032	0,185759	0,000000	0,000000
4,757642	828,036668	111,534	0,193959	0,000000	0,000000
4,787640	846,469898	113,038	0,201295	0,000000	0,000000
4,817598	866,781417	114,543	0,209379	0,000000	0,000000
4,847574	884,748449	116,045	0,216530	0,000000	0,000000
4,877611	904,644070	117,550	0,224449	0,000000	0,000000
4,907586	923,907869	119,053	0,232116	0,000000	0,000000
4,937541	942,715285	120,556	0,239601	0,000000	0,000000
4,967509	962,985091	122,062	0,247668	0,000000	0,000000
4,997487	899,907251	123,569	0,222563	0,000000	0,000000
5,027571	917,974884	125,074	0,229754	0,000000	0,000000
5,037573	923,883333	126,578	0,232106	0,000000	0,000000
5,037597	921,655396	128,083	0,231219	0,000000	0,000000
5,037486	920,076457	129,585	0,230591	0,000000	0,000000
5,037480	918,572354	131,092	0,229992	0,000000	0,000000
5,037565	917,576162	132,594	0,229596	0,000000	0,000000
5,037536	917,052303	134,099	0,229387	0,000000	0,000000
5,037551	915,988635	135,605	0,228964	0,000000	0,000000
5,007620	891,887416	137,112	0,219372	0,000000	0,000000
4,977524	866,007283	138,615	0,209071	0,000000	0,000000
4,947526	840,086664	140,117	0,198755	0,000000	0,000000
4,917553	816,684742	141,624	0,189441	0,000000	0,000000
4,887604	790,564149	143,130	0,179045	0,000000	0,000000
4,857555	766,812579	144,635	0,169592	0,000000	0,000000
4,827591	743,151794	146,138	0,160175	0,000000	0,000000
4,797521	719,275086	147,643	0,150672	0,000000	0,000000
4,767648	695,516155	149,147	0,141216	0,000000	0,000000
4,737580	671,398987	150,650	0,131617	0,000000	0,000000
4,707627	648,112388	152,153	0,122349	0,000000	0,000000
4,677605	624,808613	153,659	0,113074	0,000000	0,000000
4,647611	599,951663	155,163	0,103181	0,000000	0,000000
4,617677	578,245230	156,668	0,094542	0,000000	0,000000
4,587626	556,321647	158,170	0,085816	0,000000	0,000000
4,557707	531,903904	159,678	0,076098	0,000000	0,000000
4,527704	511,261140	161,185	0,067882	0,000000	0,000000
4,497690	487,850630	162,687	0,058565	0,000000	0,000000
4,467713	467,189463	164,192	0,050342	0,000000	0,000000
4,437641	445,565228	165,697	0,041735	0,000000	0,000000
4,407695	423,434310	167,201	0,032927	0,000000	0,000000
4,377708	401,876325	168,702	0,024347	0,000000	0,000000
4,347748	379,753995	170,203	0,015542	0,000000	0,000000
4,317757	356,940955	171,707	0,006463	0,000000	0,000000
4,287739	335,765743	173,211	-0,001965	0,000000	0,000000
4,257734	316,510531	174,715	-0,009628	0,000000	0,000000
4,227769	296,408802	176,216	-0,017629	0,000000	0,000000
4,197741	276,004044	177,720	-0,025750	0,000000	0,000000
4,167843	255,551439	179,225	-0,033890	0,000000	0,000000
4,137771	235,281633	180,727	-0,041958	0,000000	0,000000
4,107750	217,439738	182,230	-0,049059	0,000000	0,000000
4,077751	198,399223	183,733	-0,056637	0,000000	0,000000
4,047805	178,587027	185,235	-0,064522	0,000000	0,000000
4,017714	162,355969	186,742	-0,070982	0,000000	0,000000
3,987835	144,115352	188,246	-0,078242	0,000000	0,000000
3,957806	127,676959	189,751	-0,084784	0,000000	0,000000
3,927848	111,379652	191,256	-0,091271	0,000000	0,000000
3,897731	103,334053	192,761	-0,094473	0,000000	0,000000
3,867785	119,025302	194,263	-0,088228	0,000000	0,000000
3,837809	210,549819	195,764	-0,051801	0,000000	0,000000
3,807840	194,194851	197,270	-0,058310	0,000000	0,000000
3,777801	178,104880	198,773	-0,064714	0,000000	0,000000
3,747860	162,098333	200,277	-0,071084	0,000000	0,000000
3,717802	144,637985	201,783	-0,078034	0,000000	0,000000
3,687816	127,053726	203,290	-0,085032	0,000000	0,000000
3,657811	109,043754	204,795	-0,092200	0,000000	0,000000
3,627793	90,777373	206,299	-0,099470	0,000000	0,000000
3,597834	73,458111	207,802	-0,106363	0,000000	0,000000
3,567845	58,125098	209,305	-0,112466	0,000000	0,000000
3,537833	41,337056	210,811	-0,119147	0,000000	0,000000
3,507896	25,812657	212,314	-0,125326	0,000000	0,000000
3,477839	7,645650	213,821	-0,132557	0,000000	0,000000
3,447881	-9,092091	215,322	-0,139218	0,000000	0,000000
3,417870	-26,319341	216,827	-0,146075	0,000000	0,000000
3,387879	-41,460967	218,330	-0,152101	0,000000	0,000000
3,357893	-59,270964	219,836	-0,159189	0,000000	0,000000
3,327868	-74,711939	221,343	-0,165335	0,000000	0,000000
3,297880	-90,718485	222,844	-0,171706	0,000000	0,000000
3,267874	-105,436852	224,349	-0,177563	0,000000	0,000000
3,237861	-120,030082	225,852	-0,183372	0,000000	0,000000
3,207851	-129,961330	227,353	-0,187324	0,000000	0,000000
3,177935	-137,565268	228,858	-0,190351	0,000000	0,000000
3,147986	-147,945538	230,362	-0,194482	0,000000	0,000000
3,117944	-162,596429	231,866	-0,200313	0,000000	0,000000
3,087955	-175,312598	233,370	-0,205374	0,000000	0,000000
3,057922	-190,346263	234,871	-0,211357	0,000000	0,000000
3,027861	-202,488271	236,374	-0,216190	0,000000	0,000000
2,997945	-215,020415	237,874	-0,221178	0,000000	0,000000
2,967966	-224,702615	239,374	-0,225031	0,000000	0,000000
2,937984	-159,687598	240,878	-0,199155	0,000000	0,000000
2,907955	-159,704774	242,381	-0,199162	0,000000	0,000000
2,877899	-163,826947	243,885	-0,200803	0,000000	0,000000
2,847935	-163,003739	245,388	-0,200475	0,000000	0,000000
2,817967	-0,764320	246,893	-0,135904	0,000000	0,000000
2,788036	-0,365598	248,398	-0,135745	0,000000	0,000000
2,757995	-0,348422	249,901	-0,135738	0,000000	0,000000
2,727993	-0,141086	251,403	-0,135656	0,000000	0,000000
2,698010	-0,372959	252,907	-0,135748	0,000000	0,000000
2,667999	-0,257636	254,414	-0,135702	0,000000	0,000000
2,638052	-0,116550	255,922	-0,135646	0,000000	0,000000
2,607982	-0,099374	257,426	-0,135639	0,000000	0,000000
2,577906	-0,290760	258,929	-0,135715	0,000000	0,000000
2,548012	-0,107962	260,434	-0,135643	0,000000	0,000000
2,537977	0,058888	260,934	-0,135576	0,000000	0,000000