File: Nanoindentation Datenauswertung/data/PDMS/EM-PDMS-50-10-50-0,5um-5
Quasi static measurement routine
Tip parameters (shape,radius, material...)
15.08.2022

Piezo position[nm]	MEMS displ.[nm]	Time[ms]	Cap [pf]	Temp [°C]	Rh [%]
eoh
2,660000	0,000000	0,214	-0,106108	22,370000	52,730000
2,666549	-0,130768	0,872	-0,106162	22,370000	52,730000
2,673086	0,323921	1,524	-0,105977	22,370000	52,715000
2,679485	0,129568	2,185	-0,106056	22,370000	52,715000
2,686017	-0,520673	2,842	-0,106320	22,370000	52,715000
2,692534	0,000000	3,497	-0,106108	22,360000	52,700000
2,698974	-0,130768	4,151	-0,106162	22,360000	52,700000
2,705462	-0,326321	4,805	-0,106241	22,360000	52,700000
2,711973	-0,195552	5,458	-0,106188	22,360000	52,710000
2,718541	-0,326321	6,111	-0,106241	22,360000	52,710000
2,725062	-0,391105	6,763	-0,106268	22,360000	52,710000
2,731512	0,129568	7,434	-0,106056	22,360000	52,710000
2,738016	-0,130768	8,091	-0,106162	22,360000	52,710000
2,744476	0,000000	8,751	-0,106108	22,360000	52,710000
2,751060	0,129568	9,405	-0,106056	22,370000	52,715000
2,757465	-0,326321	10,056	-0,106241	22,370000	52,715000
2,764000	-0,260337	10,709	-0,106214	22,370000	52,715000
2,770471	-0,260337	11,364	-0,106214	22,370000	52,715000
2,776992	0,063585	12,017	-0,106083	22,370000	52,715000
2,783509	-0,260337	12,670	-0,106214	22,370000	52,715000
2,789990	-0,391105	13,323	-0,106268	22,370000	52,740000
2,796480	-1,041347	13,983	-0,106532	22,370000	52,740000
2,803032	-0,195552	14,643	-0,106188	22,370000	52,740000
2,809544	-0,326321	15,299	-0,106241	22,370000	52,740000
2,816032	0,000000	15,952	-0,106108	22,370000	52,740000
2,822498	-0,130768	16,604	-0,106162	22,370000	52,740000
2,829013	-2,211062	17,256	-0,107008	22,370000	52,740000
2,835550	-0,455889	17,909	-0,106294	22,370000	52,755000
2,841922	0,649042	18,563	-0,105844	22,370000	52,755000
2,848428	1,364068	19,216	-0,105553	22,370000	52,755000
2,855001	2,599768	19,867	-0,105050	22,370000	52,755000
2,861505	2,989673	20,524	-0,104892	22,370000	52,755000
2,867987	3,119241	21,179	-0,104839	22,370000	52,755000
2,874492	4,875614	21,836	-0,104124	22,370000	52,730000
2,881047	5,200735	22,501	-0,103992	22,370000	52,730000
2,887521	6,045330	23,155	-0,103648	22,370000	52,730000
2,894003	6,630787	23,810	-0,103410	22,370000	52,730000
2,900507	7,541366	24,467	-0,103039	22,370000	52,730000
2,906993	9,036202	25,123	-0,102431	22,370000	52,730000
2,913516	9,361323	25,776	-0,102298	22,360000	52,725000
2,920010	10,532239	26,429	-0,101822	22,360000	52,725000
2,926491	11,637170	27,084	-0,101372	22,360000	52,725000
2,932996	13,002438	27,743	-0,100816	22,370000	52,730000
2,939486	13,652680	28,413	-0,100552	22,370000	52,730000
2,945997	14,692827	29,073	-0,100128	22,370000	52,730000
2,952546	14,562059	29,731	-0,100182	22,370000	52,755000
2,959014	15,278284	30,392	-0,099890	22,370000	52,755000
2,965470	15,862542	31,061	-0,099652	22,370000	52,755000
2,971997	17,163026	31,717	-0,099123	22,360000	52,710000
2,978476	17,163026	32,369	-0,099123	22,360000	52,710000
2,985002	18,008820	33,022	-0,098779	22,360000	52,710000
2,991516	18,918199	33,679	-0,098409	22,360000	52,710000
2,997996	18,659062	34,333	-0,098514	22,360000	52,710000
3,004516	18,723846	34,999	-0,098488	22,360000	52,710000
3,011015	18,982983	35,653	-0,098382	22,370000	52,740000
3,017435	19,309304	36,326	-0,098250	22,370000	52,740000
3,023980	20,414235	36,981	-0,097800	22,370000	52,740000
3,030469	20,414235	37,635	-0,097800	22,370000	52,730000
3,036997	20,479020	38,294	-0,097773	22,370000	52,730000
3,043469	21,714719	38,972	-0,097271	22,370000	52,730000
3,049999	22,754866	39,629	-0,096847	22,360000	52,700000
3,056482	23,014003	40,306	-0,096742	22,360000	52,700000
3,063002	23,730229	40,966	-0,096450	22,360000	52,700000
3,069414	25,225065	41,628	-0,095842	22,370000	52,740000
3,075950	25,875307	42,305	-0,095577	22,370000	52,740000
3,082495	26,329997	42,967	-0,095392	22,370000	52,740000
3,088944	26,069660	43,630	-0,095498	22,370000	52,740000
3,095529	27,630480	44,292	-0,094863	22,370000	52,740000
3,102015	28,215938	44,948	-0,094625	22,370000	52,740000
3,108466	29,191301	45,600	-0,094228	22,370000	52,715000
3,115022	30,035895	46,254	-0,093884	22,370000	52,715000
3,121467	31,271595	46,917	-0,093381	22,370000	52,715000
3,127964	33,091552	47,569	-0,092640	22,360000	52,725000
3,134490	34,002131	48,236	-0,092270	22,360000	52,725000
3,140942	34,781941	48,909	-0,091952	22,360000	52,725000
3,147451	35,367399	49,563	-0,091714	22,370000	52,730000
3,153970	37,382908	50,244	-0,090894	22,370000	52,730000
3,159984	37,512477	50,896	-0,090841	22,370000	52,730000
3,159982	37,512477	51,573	-0,090841	22,370000	52,730000
3,159950	36,603098	52,237	-0,091211	22,370000	52,730000
3,159927	36,797451	52,899	-0,091132	22,370000	52,730000
3,159971	36,342761	53,554	-0,091317	22,370000	52,730000
3,159973	36,147209	54,205	-0,091396	22,370000	52,730000
3,160021	36,213193	54,864	-0,091370	22,370000	52,730000
3,159934	35,236630	55,533	-0,091767	22,370000	52,730000
3,159971	34,912709	56,206	-0,091899	22,370000	52,730000
3,159985	34,002131	56,859	-0,092270	22,370000	52,730000
3,159948	34,781941	57,527	-0,091952	22,370000	52,740000
3,160013	34,912709	58,199	-0,091899	22,370000	52,740000
3,160014	35,171846	58,851	-0,091793	22,370000	52,740000
3,159950	32,376526	59,525	-0,092931	22,370000	52,740000
3,159959	31,791068	60,205	-0,093169	22,370000	52,740000
3,159982	31,921837	60,857	-0,093116	22,370000	52,740000
3,155487	30,815706	61,511	-0,093566	22,360000	52,740000
3,148994	28,149954	62,167	-0,094651	22,360000	52,740000
3,142445	26,525549	62,825	-0,095313	22,360000	52,740000
3,135952	24,704392	63,520	-0,096054	22,370000	52,700000
3,129464	22,624098	64,218	-0,096900	22,370000	52,700000
3,123009	22,429745	64,873	-0,096979	22,370000	52,700000
3,116522	19,958346	65,550	-0,097985	22,370000	52,700000
3,109925	18,853415	66,227	-0,098435	22,370000	52,700000
3,103479	17,813268	66,907	-0,098858	22,370000	52,700000
3,096949	16,058095	67,559	-0,099573	22,360000	52,740000
3,090488	15,017948	68,225	-0,099996	22,360000	52,740000
3,083970	14,953163	68,901	-0,100022	22,360000	52,740000
3,077482	12,871670	69,562	-0,100870	22,370000	52,715000
3,070982	11,766738	70,226	-0,101319	22,370000	52,715000
3,064458	10,661807	70,877	-0,101769	22,370000	52,715000
3,057969	10,141134	71,544	-0,101981	22,360000	52,725000
3,051500	9,100987	72,205	-0,102404	22,360000	52,725000
3,044994	8,060840	72,861	-0,102828	22,360000	52,725000
3,038470	7,541366	73,543	-0,103039	22,370000	52,730000
3,032011	6,501219	74,224	-0,103462	22,370000	52,730000
3,025503	6,045330	74,878	-0,103648	22,370000	52,730000
3,018941	5,005183	75,534	-0,104071	22,370000	52,715000
3,012403	4,290157	76,218	-0,104362	22,370000	52,715000
3,006005	4,615278	76,893	-0,104230	22,370000	52,715000
2,999434	3,639915	77,576	-0,104627	22,370000	52,715000
2,992984	2,079094	78,263	-0,105262	22,370000	52,715000
2,986467	1,819957	78,939	-0,105368	22,370000	52,715000
2,979989	1,234500	79,610	-0,105606	22,360000	52,710000
2,973511	0,519474	80,291	-0,105897	22,360000	52,710000
2,967019	-0,065984	80,989	-0,106135	22,360000	52,710000
2,960547	-0,130768	81,646	-0,106162	22,370000	52,700000
2,953993	-1,885941	82,328	-0,106876	22,370000	52,700000
2,947491	-1,300484	82,989	-0,106638	22,370000	52,700000
2,941019	-1,691589	83,649	-0,106797	22,370000	52,715000
2,934484	-2,536183	84,338	-0,107141	22,370000	52,715000
2,928005	-2,016710	84,993	-0,106929	22,370000	52,715000
2,921509	-2,211062	85,655	-0,107008	22,360000	52,725000
2,914964	-2,081494	86,340	-0,106956	22,360000	52,725000
2,908431	-1,756373	87,018	-0,106823	22,360000	52,725000
2,901968	-2,600967	87,684	-0,107167	22,370000	52,730000
2,895531	-2,146278	88,337	-0,106982	22,370000	52,730000
2,888968	-2,600967	88,990	-0,107167	22,370000	52,730000
2,882523	-2,796520	89,646	-0,107247	22,370000	52,715000
2,876001	-3,251209	90,314	-0,107432	22,370000	52,715000
2,869464	-2,796520	90,989	-0,107247	22,370000	52,715000
2,862963	-3,315994	91,647	-0,107458	22,370000	52,730000
2,856481	-3,315994	92,299	-0,107458	22,370000	52,730000
2,849954	-2,796520	92,990	-0,107247	22,370000	52,730000
2,843483	-4,097004	93,646	-0,107776	22,360000	52,740000
2,837020	-3,641114	94,328	-0,107590	22,360000	52,740000
2,830494	-4,226572	95,015	-0,107829	22,360000	52,740000
2,824029	-4,356141	95,694	-0,107881	22,370000	52,700000
2,817482	-4,876814	96,357	-0,108093	22,370000	52,700000
2,810989	-5,007582	97,047	-0,108146	22,370000	52,700000
2,804535	-5,852177	97,697	-0,108490	22,370000	52,700000
2,798016	-5,007582	98,386	-0,108146	22,370000	52,700000
2,791458	-5,591840	99,057	-0,108384	22,370000	52,700000
2,784976	-3,705899	99,742	-0,107617	22,370000	52,730000
2,778490	-2,926088	100,401	-0,107299	22,370000	52,730000
2,771955	0,129568	101,061	-0,106056	22,370000	52,730000
2,765529	0,063585	101,752	-0,106083	22,370000	52,730000
2,759002	0,063585	102,430	-0,106083	22,370000	52,730000
2,752525	-0,326321	103,107	-0,106241	22,370000	52,730000
2,746017	-0,065984	103,796	-0,106135	22,360000	52,710000
2,739522	-0,326321	104,464	-0,106241	22,360000	52,710000
2,733009	-0,326321	105,136	-0,106241	22,360000	52,710000
2,726494	-0,976562	105,842	-0,106506	22,360000	52,710000
2,719983	-0,326321	106,509	-0,106241	22,360000	52,710000
2,713480	0,259137	107,181	-0,106003	22,360000	52,710000
2,706997	-0,326321	107,866	-0,106241	22,370000	52,715000
2,700498	-0,260337	108,564	-0,106214	22,370000	52,715000
2,694039	-0,195552	109,231	-0,106188	22,370000	52,715000
2,687500	0,063585	109,916	-0,106083	22,360000	52,710000
2,681061	-0,260337	110,571	-0,106214	22,360000	52,710000
2,674540	0,000000	111,245	-0,106108	22,360000	52,710000
2,667980	0,063585	111,927	-0,106083	22,360000	52,710000
2,661477	-0,260337	112,613	-0,106214	22,360000	52,710000
2,660006	0,129568	112,764	-0,106056	22,360000	52,710000