File: Nanoindentation Datenauswertung/data/PDMS/EM-PDMS-100-10-100-2um-1
Quasi static measurement routine
Tip parameters (shape,radius, material...)
24.08.2022

Piezo position[nm]	MEMS displ.[nm]	Time[ms]	Cap [pf]	Temp [°C]	Rh [%]
eoh
2,551863	-0,050300	0,197	-0,136129	22,680000	51,870000
2,575857	-0,099374	1,397	-0,136148	22,680000	51,870000
2,599929	0,074837	2,599	-0,136079	22,680000	51,870000
2,623870	-0,307936	3,804	-0,136231	22,680000	51,870000
2,647811	0,008588	5,004	-0,136105	22,680000	51,870000
2,671855	-0,290760	6,206	-0,136225	22,680000	51,870000
2,695868	-0,664946	7,411	-0,136374	22,680000	51,870000
2,719883	-0,572933	8,612	-0,136337	22,690000	51,845000
2,743840	-0,607284	9,813	-0,136351	22,690000	51,845000
2,767878	-0,764320	11,016	-0,136413	22,690000	51,845000
2,791811	-0,947118	12,221	-0,136486	22,690000	51,870000
2,815869	-0,531221	13,426	-0,136320	22,690000	51,870000
2,839860	-1,006007	14,631	-0,136509	22,690000	51,870000
2,863869	-1,072256	15,836	-0,136536	22,690000	51,870000
2,887885	-1,213342	17,042	-0,136592	22,690000	51,870000
2,911872	-1,504103	18,244	-0,136708	22,680000	51,830000
2,935818	-1,711438	19,447	-0,136790	22,680000	51,830000
2,959866	-2,102799	20,649	-0,136946	22,680000	51,830000
2,983806	-2,526058	21,853	-0,137114	22,680000	51,830000
3,007801	-3,091630	23,058	-0,137339	22,680000	51,860000
3,031825	-4,279209	24,260	-0,137812	22,700000	51,860000
3,055802	-72,219005	25,462	-0,164852	22,700000	51,860000
3,079815	-63,326888	26,667	-0,161313	22,700000	51,860000
3,103795	-55,124254	27,873	-0,158048	22,700000	51,860000
3,127808	-46,381811	29,075	-0,154569	22,690000	51,830000
3,151840	-35,860455	30,277	-0,150381	22,690000	51,830000
3,175805	-26,460427	31,478	-0,146640	22,690000	51,830000
3,199847	-17,302087	32,678	-0,142995	22,690000	51,860000
3,223829	-6,166084	33,881	-0,138563	22,690000	51,860000
3,247771	3,457228	35,084	-0,134733	22,680000	51,860000
3,271772	14,319645	36,288	-0,130410	22,680000	51,845000
3,295806	26,851788	37,491	-0,125422	22,680000	51,845000
3,319833	36,915535	38,695	-0,121417	22,680000	51,845000
3,343788	47,271268	39,898	-0,117295	22,680000	51,845000
3,367755	44,071677	41,099	-0,118568	22,680000	51,860000
3,391809	38,677273	42,304	-0,120715	22,680000	51,870000
3,415755	51,625314	43,506	-0,115562	22,680000	51,870000
3,439798	61,939335	44,710	-0,111457	22,670000	51,865000
3,463813	68,961752	45,916	-0,108662	22,670000	51,865000
3,487762	80,022917	47,121	-0,104260	22,690000	51,830000
3,511729	90,161501	48,325	-0,100225	22,680000	51,845000
3,535721	102,801606	49,530	-0,095194	22,680000	51,845000
3,559653	116,182720	50,733	-0,089868	22,680000	51,845000
3,583686	129,437471	51,938	-0,084593	22,680000	51,845000
3,607712	144,820784	53,142	-0,078470	22,680000	51,830000
3,631712	156,795943	54,343	-0,073704	22,680000	51,885000
3,655663	171,098412	55,547	-0,068012	22,680000	51,885000
3,679695	186,756537	56,752	-0,061780	22,680000	51,860000
3,703762	199,405229	57,956	-0,056746	22,680000	51,860000
3,727712	214,978702	59,159	-0,050547	22,700000	51,845000
3,751667	229,373184	60,363	-0,044818	22,690000	51,885000
3,775740	243,525980	61,566	-0,039186	22,690000	51,885000
3,799632	257,737663	62,769	-0,033529	22,680000	51,845000
3,823675	272,313717	63,974	-0,027728	22,680000	51,845000
3,847709	288,254014	65,178	-0,021384	22,680000	51,845000
3,871687	302,041212	66,382	-0,015896	22,680000	51,860000
3,895620	317,955746	67,586	-0,009562	22,680000	51,860000
3,919691	332,839736	68,788	-0,003639	22,690000	51,885000
3,943698	347,732314	69,992	0,002289	22,690000	51,885000
3,967678	361,461850	71,193	0,007753	22,680000	51,895000
3,991675	375,689483	72,398	0,013416	22,680000	51,845000
4,015669	391,746329	73,599	0,019806	22,680000	51,845000
4,039755	402,932632	74,805	0,024258	22,680000	51,885000
4,063699	417,017951	76,006	0,029864	22,680000	51,885000
4,087696	432,018491	77,208	0,035834	22,680000	51,885000
4,111593	446,454686	78,412	0,041580	22,670000	51,855000
4,135678	461,787698	79,613	0,047683	22,670000	51,855000
4,159657	476,215305	80,817	0,053425	22,670000	51,855000
4,183623	492,537149	82,022	0,059921	22,670000	51,855000
4,207615	505,975925	83,225	0,065270	22,690000	51,845000
4,231590	521,124912	84,429	0,071299	22,690000	51,860000
4,255649	535,909528	85,633	0,077183	22,690000	51,860000
4,279681	552,382273	86,839	0,083739	22,680000	51,845000
4,303615	566,277432	88,048	0,089270	22,690000	51,870000
4,327635	581,103761	89,253	0,095170	22,690000	51,870000
4,351625	595,804952	90,455	0,101021	22,680000	51,845000
4,375582	612,957365	91,656	0,107848	22,680000	51,845000
4,399612	627,501521	92,858	0,113637	22,680000	51,845000
4,423633	641,945077	94,063	0,119385	22,690000	51,845000
4,447569	656,879368	95,264	0,125329	22,690000	51,845000
4,471602	671,414936	96,472	0,131114	22,680000	51,870000
4,495631	686,473137	97,681	0,137107	22,680000	51,870000
4,519594	701,424603	98,888	0,143058	22,690000	51,870000
4,543618	716,865578	100,095	0,149204	22,690000	51,870000
4,551578	721,826908	101,300	0,151178	22,690000	51,870000
4,551611	720,979163	102,505	0,150841	22,690000	51,885000
4,551569	720,679815	103,708	0,150722	22,690000	51,885000
4,551626	719,749872	104,909	0,150352	22,690000	51,870000
4,551634	719,516773	106,113	0,150259	22,680000	51,885000
4,551536	718,992914	107,315	0,150050	22,680000	51,885000
4,551638	718,585604	108,519	0,149888	22,680000	51,870000
4,551587	718,195470	109,723	0,149733	22,680000	51,870000
4,543594	712,793705	110,927	0,147583	22,680000	51,870000
4,519586	696,496398	112,134	0,141097	22,680000	51,845000
4,495601	680,091129	113,336	0,134567	22,680000	51,845000
4,471610	661,857873	114,538	0,127311	22,690000	51,860000
4,447567	647,022957	115,740	0,121406	22,690000	51,860000
4,423555	631,024998	116,943	0,115039	22,690000	51,860000
4,399591	615,126413	118,149	0,108711	22,680000	51,860000
4,375600	598,987368	119,353	0,102288	22,680000	51,860000
4,351618	581,734355	120,553	0,095421	22,690000	51,830000
4,327590	566,035745	121,756	0,089173	22,690000	51,830000
4,303641	550,777569	122,959	0,083101	22,680000	51,860000
4,279640	535,536570	124,162	0,077035	22,680000	51,885000
4,255640	520,585103	125,363	0,071084	22,680000	51,885000
4,231617	505,493777	126,564	0,065078	22,680000	51,870000
4,207620	488,648074	127,768	0,058373	22,680000	51,870000
4,183649	474,495279	128,972	0,052740	22,680000	51,870000
4,159583	457,773487	130,174	0,046085	22,700000	51,870000
4,135659	443,255094	131,380	0,040307	22,700000	51,870000
4,111670	426,600777	132,585	0,033678	22,690000	51,870000
4,087623	413,071215	133,789	0,028293	22,690000	51,870000
4,063701	396,108963	134,993	0,021542	22,690000	51,870000
4,039677	382,986711	136,195	0,016320	22,680000	51,830000
4,015659	367,545736	137,398	0,010174	22,680000	51,830000
3,991668	350,940493	138,602	0,003565	22,680000	51,830000
3,967678	336,073679	139,806	-0,002352	22,680000	51,830000
3,943735	321,322187	141,008	-0,008223	22,680000	51,845000
3,919668	307,550938	142,214	-0,013704	22,680000	51,845000
3,895707	291,278168	143,415	-0,020180	22,680000	51,845000
3,871696	276,087469	144,618	-0,026226	22,690000	51,845000
3,847724	263,122252	145,818	-0,031386	22,690000	51,845000
3,823711	248,029699	147,018	-0,037393	22,690000	51,845000
3,799722	232,156878	148,220	-0,043710	22,680000	51,845000
3,775729	218,145169	149,422	-0,049287	22,680000	51,845000
3,751734	204,100336	150,625	-0,054877	22,680000	51,860000
3,727745	188,326888	151,828	-0,061155	22,680000	51,860000
3,703727	173,841620	153,031	-0,066920	22,680000	51,845000
3,679708	159,730537	154,232	-0,072536	22,680000	51,845000
3,655752	145,028119	155,436	-0,078388	22,680000	51,845000
3,631735	130,393177	156,638	-0,084212	22,680000	51,845000
3,607742	114,544892	157,844	-0,090520	22,680000	51,845000
3,583816	100,309899	159,048	-0,096186	22,690000	51,845000
3,559793	87,801066	160,253	-0,101164	22,680000	51,870000
3,535777	73,299849	161,457	-0,106936	22,680000	51,870000
3,511722	60,875667	162,663	-0,111880	22,690000	51,870000
3,487787	47,220968	163,868	-0,117315	22,690000	51,870000
3,463727	34,763662	165,073	-0,122273	22,690000	51,870000
3,439756	21,557985	166,278	-0,127529	22,680000	51,860000
3,415710	6,432308	167,483	-0,133549	22,680000	51,860000
3,391742	-6,972116	168,686	-0,138884	22,680000	51,860000
3,367781	-18,490892	169,889	-0,143468	22,680000	51,860000
3,343755	-31,738281	171,091	-0,148741	22,680000	51,830000
3,319764	-44,561185	172,296	-0,153844	22,690000	51,845000
3,295776	-56,454146	173,499	-0,158578	22,690000	51,845000
3,271810	-68,246506	174,701	-0,163271	22,690000	51,845000
3,247811	-79,474521	175,904	-0,167740	22,690000	51,845000
3,223851	-88,690523	177,106	-0,171408	22,680000	51,870000
3,199815	-95,164543	178,307	-0,173984	22,680000	51,845000
3,175806	-102,470360	179,512	-0,176892	22,680000	51,845000
3,151834	-113,855410	180,719	-0,181423	22,680000	51,870000
3,127796	-125,515272	181,924	-0,186064	22,680000	51,870000
3,103791	-136,891734	183,128	-0,190592	22,680000	51,860000
3,079814	-149,648388	184,332	-0,195669	22,680000	51,870000
3,055829	-160,037247	185,534	-0,199804	22,680000	51,870000
3,031822	-172,379230	186,736	-0,204716	22,680000	51,870000
3,007854	-183,414632	187,940	-0,209108	22,680000	51,870000
2,983849	-194,028001	189,144	-0,213332	22,690000	51,860000
2,959821	-204,565307	190,345	-0,217526	22,680000	51,845000
2,935860	-216,259520	191,547	-0,222180	22,680000	51,845000
2,911905	-224,594653	192,751	-0,225498	22,680000	51,860000
2,887844	-159,621349	193,953	-0,199638	22,680000	51,860000
2,863790	-152,408772	195,155	-0,196768	22,680000	51,860000
2,839871	-155,034204	196,355	-0,197813	22,690000	51,885000
2,815850	-155,674613	197,560	-0,198067	22,690000	51,885000
2,791799	-145,983825	198,763	-0,194210	22,680000	51,845000
2,767857	-0,506684	199,968	-0,136311	22,680000	51,845000
2,743865	-0,565572	201,171	-0,136334	22,680000	51,845000
2,719838	-0,307936	202,374	-0,136231	22,680000	51,845000
2,695873	-0,090786	203,578	-0,136145	22,680000	51,845000
2,671882	-0,182799	204,781	-0,136182	22,690000	51,870000
2,647860	0,074837	205,982	-0,136079	22,690000	51,870000
2,623896	-0,008588	207,183	-0,136112	22,690000	51,845000
2,599886	0,041712	208,386	-0,136092	22,690000	51,845000
2,575857	-0,199974	209,589	-0,136188	22,690000	51,845000
2,551838	0,066249	210,795	-0,136083	22,660000	51,840000