File: Nanoindentation Datenauswertung/data/PDMS/EM-PDMS-50-10-50-1um-2
Quasi static measurement routine
Tip parameters (shape,radius, material...)
24.08.2022

Piezo position[nm]	MEMS displ.[nm]	Time[ms]	Cap [pf]	Temp [°C]	Rh [%]
eoh
2,625879	-0,017176	0,239	-0,135877	22,720000	52,310000
2,639910	-0,058888	0,939	-0,135894	22,730000	52,300000
2,653904	-0,008588	1,640	-0,135874	22,730000	52,300000
2,667844	-0,266224	2,342	-0,135977	22,730000	52,300000
2,681909	-0,182799	3,045	-0,135943	22,730000	52,300000
2,695849	-0,125137	3,746	-0,135920	22,730000	52,300000
2,709883	-0,125137	4,450	-0,135920	22,730000	52,315000
2,723862	0,041712	5,150	-0,135854	22,730000	52,315000
2,737843	-0,257636	5,854	-0,135973	22,730000	52,315000
2,751824	-0,274812	6,556	-0,135980	22,730000	52,290000
2,765871	-0,249048	7,259	-0,135970	22,730000	52,290000
2,779919	-0,374185	7,961	-0,136020	22,730000	52,290000
2,793864	-0,182799	8,662	-0,135943	22,720000	52,295000
2,807856	-0,266224	9,363	-0,135977	22,720000	52,295000
2,821820	-0,424486	10,066	-0,136040	22,720000	52,295000
2,835897	-0,548396	10,769	-0,136089	22,710000	52,295000
2,849832	-0,415898	11,471	-0,136036	22,710000	52,295000
2,863820	-0,440435	12,171	-0,136046	22,710000	52,295000
2,877897	-0,574160	12,873	-0,136099	22,710000	52,295000
2,891826	-0,374185	13,575	-0,136020	22,710000	52,295000
2,905856	-1,105380	14,278	-0,136311	22,710000	52,295000
2,919910	-0,574160	14,979	-0,136099	22,730000	52,300000
2,933843	-0,482147	15,680	-0,136063	22,730000	52,300000
2,947839	-0,640409	16,383	-0,136125	22,730000	52,300000
2,961803	-0,017176	17,085	-0,135877	22,730000	52,300000
2,975861	-0,872281	17,787	-0,136218	22,730000	52,300000
2,989870	-0,715246	18,488	-0,136155	22,730000	52,275000
3,003875	-0,706658	19,190	-0,136152	22,730000	52,275000
3,017786	-0,723834	19,891	-0,136159	22,730000	52,275000
3,031798	-0,823208	20,592	-0,136198	22,720000	52,320000
3,045796	-1,047719	21,292	-0,136288	22,720000	52,320000
3,059818	-0,856332	21,994	-0,136211	22,720000	52,320000
3,073787	-1,047719	22,697	-0,136288	22,730000	52,315000
3,087815	-1,288179	23,401	-0,136383	22,730000	52,315000
3,101826	-1,363016	24,103	-0,136413	22,730000	52,315000
3,115794	-1,529866	24,805	-0,136479	22,720000	52,295000
3,129838	-1,904052	25,507	-0,136628	22,720000	52,295000
3,143703	-1,737202	26,209	-0,136562	22,720000	52,295000
3,157815	-64,381968	26,911	-0,161495	22,720000	52,295000
3,171837	-62,661943	27,616	-0,160810	22,720000	52,295000
3,185830	-56,271347	28,317	-0,158267	22,720000	52,295000
3,199801	-51,617953	29,018	-0,156415	22,730000	52,300000
3,213790	-45,401568	29,720	-0,153940	22,730000	52,300000
3,227795	-40,771484	30,420	-0,152098	22,710000	52,295000
3,241782	-34,821323	31,123	-0,149729	22,710000	52,295000
3,255819	-28,422140	31,827	-0,147183	22,710000	52,295000
3,269770	-23,793283	32,527	-0,145340	22,720000	52,295000
3,283825	-16,962253	33,228	-0,142622	22,720000	52,295000
3,297847	-12,025459	33,931	-0,140657	22,720000	52,295000
3,311796	-6,134187	34,633	-0,138312	22,720000	52,295000
3,325781	1,337253	35,334	-0,135338	22,720000	52,295000
3,339820	6,557445	36,036	-0,133261	22,720000	52,295000
3,353761	12,963990	36,737	-0,130711	22,730000	52,300000
3,367731	19,953282	37,437	-0,127929	22,730000	52,300000
3,381782	25,753769	38,142	-0,125621	22,730000	52,300000
3,395741	18,764477	38,846	-0,128402	22,720000	52,270000
3,409728	6,108423	39,548	-0,133439	22,720000	52,270000
3,423721	13,520974	40,252	-0,130489	22,720000	52,270000
3,437755	21,324886	40,954	-0,127383	22,730000	52,290000
3,451769	27,632057	41,655	-0,124873	22,730000	52,290000
3,465720	33,350345	42,356	-0,122597	22,730000	52,290000
3,479736	35,959828	43,060	-0,121559	22,730000	52,290000
3,493715	39,275970	43,762	-0,120239	22,730000	52,290000
3,507757	45,334092	44,465	-0,117828	22,720000	52,260000
3,521717	53,512190	45,165	-0,114573	22,720000	52,260000
3,535752	60,800830	45,867	-0,111672	22,720000	52,260000
3,549732	67,889496	46,570	-0,108851	22,720000	52,260000
3,563669	76,059006	47,271	-0,105599	22,720000	52,260000
3,577794	83,105959	47,972	-0,102794	22,720000	52,260000
3,591702	90,368836	48,677	-0,099904	22,720000	52,285000
3,605712	98,339598	49,378	-0,096731	22,720000	52,285000
3,619721	106,134923	50,078	-0,093629	22,720000	52,285000
3,625705	110,314757	50,780	-0,091965	22,720000	52,285000
3,625734	109,799486	51,482	-0,092170	22,720000	52,285000
3,625760	109,085466	52,185	-0,092455	22,720000	52,285000
3,625725	108,669569	52,886	-0,092620	22,720000	52,285000
3,625759	107,987447	53,590	-0,092892	22,720000	52,285000
3,625697	107,870897	54,290	-0,092938	22,720000	52,285000
3,625697	107,315140	54,991	-0,093159	22,730000	52,275000
3,625695	107,580137	55,693	-0,093054	22,730000	52,275000
3,625724	107,240303	56,394	-0,093189	22,730000	52,275000
3,625709	106,758156	57,096	-0,093381	22,730000	52,275000
3,625709	106,326309	57,797	-0,093553	22,730000	52,275000
3,625709	106,599894	58,500	-0,093444	22,720000	52,270000
3,625737	106,392558	59,201	-0,093526	22,720000	52,270000
3,625721	106,284597	59,903	-0,093569	22,720000	52,270000
3,621724	104,547395	60,604	-0,094261	22,720000	52,270000
3,607711	93,942613	61,307	-0,098481	22,720000	52,270000
3,593651	86,114165	62,008	-0,101597	22,720000	52,270000
3,579737	77,138623	62,711	-0,105169	22,710000	52,260000
3,565740	68,063707	63,414	-0,108781	22,710000	52,260000
3,551719	59,495475	64,115	-0,112191	22,710000	52,260000
3,537743	49,497978	64,816	-0,116170	22,710000	52,310000
3,523722	40,405887	65,516	-0,119789	22,710000	52,310000
3,509722	32,319802	66,217	-0,123007	22,710000	52,310000
3,495774	24,233717	66,920	-0,126226	22,710000	52,310000
3,481798	15,366137	67,623	-0,129755	22,710000	52,310000
3,467756	7,637062	68,324	-0,132831	22,710000	52,310000
3,453794	-0,872281	69,028	-0,136218	22,720000	52,295000
3,439767	-8,235759	69,730	-0,139148	22,720000	52,295000
3,425772	-16,156221	70,431	-0,142301	22,730000	52,290000
3,411813	-25,164887	71,134	-0,145886	22,730000	52,290000
3,397762	-32,495240	71,834	-0,148804	22,730000	52,290000
3,383834	-41,503906	72,536	-0,152389	22,710000	52,320000
3,369756	-48,209799	73,239	-0,155058	22,710000	52,320000
3,355786	-55,813737	73,940	-0,158084	22,710000	52,320000
3,341791	-63,418901	74,640	-0,161111	22,710000	52,260000
3,327790	-70,648653	75,342	-0,163989	22,710000	52,260000
3,313756	-77,472323	76,044	-0,166705	22,710000	52,260000
3,299841	-85,591532	76,750	-0,169936	22,720000	52,285000
3,285782	-90,711124	77,453	-0,171974	22,720000	52,285000
3,271822	-97,167969	78,154	-0,174543	22,720000	52,285000
3,257739	-101,779650	78,855	-0,176379	22,720000	52,285000
3,243786	-105,395140	79,556	-0,177818	22,720000	52,285000
3,229836	-109,783537	80,256	-0,179564	22,720000	52,285000
3,215858	-114,877365	80,959	-0,181592	22,730000	52,325000
3,201838	-122,731578	81,660	-0,184718	22,730000	52,325000
3,187868	-129,712282	82,363	-0,187496	22,730000	52,325000
3,173815	-136,351926	83,067	-0,190139	22,720000	52,285000
3,159824	-142,610023	83,770	-0,192629	22,720000	52,285000
3,145796	-148,777334	84,470	-0,195084	22,720000	52,295000
3,131856	-155,857412	85,171	-0,197902	22,720000	52,295000
3,117796	-163,852711	85,872	-0,201084	22,720000	52,295000
3,103830	-170,626080	86,574	-0,203780	22,710000	52,295000
3,089761	-176,210643	87,274	-0,206002	22,710000	52,295000
3,075825	-182,759501	87,974	-0,208609	22,710000	52,295000
3,061820	-191,044333	88,675	-0,211906	22,710000	52,295000
3,047821	-196,853408	89,376	-0,214218	22,710000	52,295000
3,033849	-201,865038	90,077	-0,216213	22,710000	52,295000
3,019803	-208,721832	90,779	-0,218942	22,720000	52,295000
3,005863	-213,641449	91,484	-0,220900	22,720000	52,295000
2,991872	-217,755035	92,184	-0,222537	22,720000	52,295000
2,977929	-219,607559	92,887	-0,223274	22,730000	52,250000
2,963849	-161,325426	93,592	-0,200078	22,730000	52,250000
2,949883	-155,425565	94,294	-0,197730	22,730000	52,250000
2,935851	-156,422984	94,995	-0,198127	22,720000	52,285000
2,921831	-159,090128	95,696	-0,199188	22,720000	52,285000
2,907863	-160,686244	96,396	-0,199824	22,720000	52,285000
2,893869	-162,298308	97,096	-0,200465	22,720000	52,285000
2,879835	-162,829529	97,797	-0,200677	22,720000	52,285000
2,865853	-162,681081	98,499	-0,200618	22,730000	52,275000
2,851857	-157,876786	99,203	-0,198706	22,730000	52,275000
2,837858	-141,105920	99,905	-0,192031	22,730000	52,275000
2,823877	-0,398722	100,606	-0,136029	22,730000	52,290000
2,809883	-0,515272	101,307	-0,136076	22,730000	52,290000
2,795884	-0,349649	102,007	-0,136010	22,730000	52,290000
2,781907	-0,731195	102,707	-0,136162	22,710000	52,310000
2,767816	-0,698070	103,408	-0,136148	22,710000	52,310000
2,753870	-0,466198	104,109	-0,136056	22,710000	52,310000
2,739905	-0,574160	104,811	-0,136099	22,710000	52,310000
2,725869	-0,440435	105,513	-0,136046	22,710000	52,310000
2,711924	-0,482147	106,214	-0,136063	22,710000	52,310000
2,697848	-0,581521	106,914	-0,136102	22,730000	52,275000
2,683853	-0,283399	107,616	-0,135983	22,730000	52,275000
2,669930	-0,499323	108,318	-0,136069	22,730000	52,275000
2,655857	-0,499323	109,020	-0,136069	22,730000	52,275000
2,641907	-0,166850	109,721	-0,135937	22,730000	52,275000
2,627872	-0,092013	110,424	-0,135907	22,720000	52,270000
2,625884	-0,208562	110,524	-0,135954	22,720000	52,270000