File: Nanoindentation Datenauswertung/data/PDMS/EM-PDMS-50-10-50-0,5um-4
Quasi static measurement routine
Tip parameters (shape,radius, material...)
15.08.2022

Piezo position[nm]	MEMS displ.[nm]	Time[ms]	Cap [pf]	Temp [°C]	Rh [%]
eoh
2,659892	-0,326321	0,185	-0,106241	22,370000	52,740000
2,666394	-0,260337	0,841	-0,106214	22,370000	52,740000
2,672893	0,000000	1,493	-0,106108	22,370000	52,740000
2,679385	0,519474	2,153	-0,105897	22,370000	52,740000
2,685899	-0,845794	2,815	-0,106453	22,370000	52,740000
2,692461	-0,781010	3,488	-0,106426	22,370000	52,740000
2,698895	-0,130768	4,139	-0,106162	22,350000	52,710000
2,705412	0,000000	4,790	-0,106108	22,350000	52,710000
2,711929	-0,391105	5,444	-0,106268	22,350000	52,710000
2,718433	0,259137	6,094	-0,106003	22,350000	52,710000
2,724916	-0,130768	6,752	-0,106162	22,350000	52,710000
2,731422	-0,065984	7,408	-0,106135	22,350000	52,710000
2,737943	-0,260337	8,069	-0,106214	22,350000	52,710000
2,744375	-0,391105	8,729	-0,106268	22,370000	52,730000
2,750876	0,063585	9,386	-0,106083	22,370000	52,730000
2,757340	-0,391105	10,041	-0,106268	22,370000	52,730000
2,763920	-0,326321	10,695	-0,106241	22,370000	52,730000
2,770415	-0,781010	11,367	-0,106426	22,370000	52,730000
2,776872	-0,130768	12,031	-0,106162	22,370000	52,730000
2,783367	0,129568	12,712	-0,106056	22,360000	52,725000
2,789863	-0,326321	13,389	-0,106241	22,360000	52,725000
2,796435	-0,195552	14,067	-0,106188	22,360000	52,725000
2,802896	-0,391105	14,724	-0,106268	22,360000	52,725000
2,809382	-0,391105	15,427	-0,106268	22,360000	52,725000
2,815895	0,323921	16,085	-0,105977	22,370000	52,715000
2,822357	-2,081494	16,737	-0,106956	22,370000	52,715000
2,828820	-0,976562	17,423	-0,106506	22,370000	52,715000
2,835384	0,323921	18,075	-0,105977	22,370000	52,715000
2,841846	0,649042	18,729	-0,105844	22,370000	52,715000
2,848422	1,234500	19,391	-0,105606	22,370000	52,715000
2,854858	1,689189	20,075	-0,105421	22,370000	52,715000
2,861364	2,599768	20,746	-0,105050	22,370000	52,715000
2,867907	3,445562	21,447	-0,104706	22,370000	52,715000
2,874368	4,290157	22,112	-0,104362	22,370000	52,730000
2,880877	5,590640	22,769	-0,103833	22,370000	52,730000
2,887373	5,655425	23,441	-0,103807	22,370000	52,730000
2,893832	7,996055	24,094	-0,102854	22,360000	52,725000
2,900378	8,711081	24,751	-0,102563	22,360000	52,725000
2,906939	9,166971	25,421	-0,102377	22,360000	52,725000
2,913377	10,205918	26,084	-0,101955	22,360000	52,725000
2,919908	10,141134	26,737	-0,101981	22,360000	52,725000
2,926356	11,246065	27,389	-0,101531	22,360000	52,725000
2,932911	12,481764	28,053	-0,101028	22,360000	52,725000
2,939404	12,806885	28,725	-0,100896	22,360000	52,710000
2,945820	13,587895	29,381	-0,100578	22,360000	52,710000
2,952361	13,847032	30,038	-0,100473	22,360000	52,710000
2,958902	14,562059	30,701	-0,100182	22,360000	52,710000
2,965380	15,603405	31,356	-0,099758	22,360000	52,710000
2,971883	15,472637	32,009	-0,099811	22,360000	52,710000
2,978433	16,122879	32,669	-0,099546	22,370000	52,730000
2,984866	17,033457	33,347	-0,099176	22,370000	52,730000
2,991407	17,683699	34,003	-0,098911	22,370000	52,730000
2,997905	17,683699	34,673	-0,098911	22,370000	52,730000
3,004316	18,528294	35,342	-0,098567	22,370000	52,730000
3,010875	18,398725	35,997	-0,098620	22,370000	52,730000
3,017356	18,203173	36,651	-0,098700	22,370000	52,700000
3,023922	18,982983	37,311	-0,098382	22,370000	52,700000
3,030405	18,918199	37,963	-0,098409	22,370000	52,700000
3,036922	19,243320	38,616	-0,098276	22,360000	52,710000
3,043370	20,543804	39,308	-0,097747	22,360000	52,710000
3,049816	21,975056	39,963	-0,097165	22,360000	52,710000
3,056378	22,429745	40,631	-0,096979	22,370000	52,730000
3,062814	23,599461	41,297	-0,096503	22,370000	52,730000
3,069415	24,314487	41,948	-0,096212	22,370000	52,730000
3,075909	25,940091	42,611	-0,095551	22,360000	52,710000
3,082415	26,394781	43,298	-0,095366	22,360000	52,710000
3,088849	26,655117	43,953	-0,095260	22,360000	52,710000
3,095415	27,695265	44,610	-0,094836	22,360000	52,725000
3,101882	28,020385	45,265	-0,094704	22,360000	52,725000
3,108388	29,320869	45,931	-0,094175	22,360000	52,725000
3,114875	29,971111	46,606	-0,093910	22,350000	52,710000
3,121360	31,401163	47,301	-0,093328	22,350000	52,710000
3,127862	32,897199	47,959	-0,092719	22,350000	52,710000
3,134325	33,091552	48,611	-0,092640	22,360000	52,700000
3,140848	34,652373	49,268	-0,092005	22,360000	52,700000
3,147384	35,107062	49,933	-0,091820	22,360000	52,700000
3,153893	35,757304	50,609	-0,091555	22,360000	52,700000
3,159810	36,862235	51,274	-0,091105	22,360000	52,700000
3,159844	35,627735	51,928	-0,091608	22,360000	52,700000
3,159804	36,017641	52,593	-0,091449	22,370000	52,730000
3,159851	34,977493	53,261	-0,091873	22,370000	52,730000
3,159893	34,977493	53,918	-0,091873	22,370000	52,730000
3,159829	34,197683	54,571	-0,092190	22,370000	52,730000
3,159838	34,717157	55,238	-0,091979	22,370000	52,730000
3,159843	33,937346	55,897	-0,092296	22,370000	52,730000
3,159862	34,066915	56,571	-0,092243	22,370000	52,715000
3,159846	34,652373	57,226	-0,092005	22,370000	52,715000
3,159833	33,351889	57,900	-0,092534	22,370000	52,715000
3,159838	33,937346	58,562	-0,092296	22,360000	52,710000
3,159893	34,131699	59,224	-0,092217	22,360000	52,710000
3,159864	33,677010	59,876	-0,092402	22,360000	52,710000
3,159864	33,287105	60,530	-0,092561	22,350000	52,710000
3,159905	33,221121	61,193	-0,092587	22,350000	52,710000
3,155355	32,572078	61,866	-0,092852	22,350000	52,710000
3,148878	29,645990	62,518	-0,094042	22,370000	52,730000
3,142385	27,760049	63,179	-0,094810	22,370000	52,730000
3,135804	26,525549	63,850	-0,095313	22,370000	52,730000
3,129395	24,380471	64,518	-0,096186	22,370000	52,730000
3,122860	22,754866	65,170	-0,096847	22,370000	52,730000
3,116362	21,519167	65,844	-0,097350	22,370000	52,730000
3,109837	19,503657	66,504	-0,098170	22,360000	52,740000
3,103442	18,267957	67,174	-0,098673	22,360000	52,740000
3,096879	16,773121	67,826	-0,099282	22,360000	52,740000
3,090433	15,472637	68,510	-0,099811	22,370000	52,730000
3,083902	14,887179	69,181	-0,100049	22,370000	52,730000
3,077380	13,521911	69,845	-0,100605	22,370000	52,730000
3,070921	12,937654	70,505	-0,100843	22,370000	52,730000
3,064380	10,597023	71,179	-0,101795	22,370000	52,730000
3,057917	10,401470	71,849	-0,101875	22,370000	52,730000
3,051371	9,621660	72,512	-0,102192	22,360000	52,725000
3,044927	9,490892	73,178	-0,102246	22,360000	52,725000
3,038354	7,541366	73,832	-0,103039	22,360000	52,725000
3,031903	6,891124	74,487	-0,103304	22,360000	52,725000
3,025405	6,176098	75,146	-0,103595	22,360000	52,725000
3,018893	5,525856	75,842	-0,103859	22,360000	52,725000
3,012340	5,395088	76,517	-0,103913	22,360000	52,710000
3,005877	4,178584	77,181	-0,104408	22,360000	52,710000
2,999350	3,250010	77,884	-0,104786	22,360000	52,710000
2,992940	2,924889	78,538	-0,104918	22,360000	52,725000
2,986426	2,339431	79,188	-0,105156	22,360000	52,725000
2,979955	1,624405	79,872	-0,105447	22,360000	52,725000
2,973379	1,169716	80,538	-0,105632	22,360000	52,725000
2,966902	0,779810	81,192	-0,105791	22,360000	52,725000
2,960413	0,259137	81,848	-0,106003	22,360000	52,725000
2,953887	-0,391105	82,529	-0,106268	22,350000	52,695000
2,947437	-0,716226	83,193	-0,106400	22,350000	52,695000
2,940902	-1,170915	83,847	-0,106585	22,350000	52,695000
2,934439	-1,821157	84,498	-0,106850	22,360000	52,710000
2,927897	-0,195552	85,153	-0,106188	22,360000	52,710000
2,921407	-0,976562	85,821	-0,106506	22,360000	52,710000
2,914884	-0,260337	86,472	-0,106214	22,360000	52,710000
2,908390	-0,520673	87,148	-0,106320	22,360000	52,710000
2,901925	-1,235699	87,844	-0,106611	22,360000	52,710000
2,895416	-2,665752	88,549	-0,107193	22,370000	52,715000
2,888902	-2,600967	89,205	-0,107167	22,370000	52,715000
2,882421	-2,211062	89,873	-0,107008	22,370000	52,715000
2,875929	-1,950726	90,555	-0,106902	22,370000	52,715000
2,869391	-2,992072	91,209	-0,107326	22,370000	52,715000
2,862947	-2,796520	91,906	-0,107247	22,370000	52,715000
2,856427	-3,315994	92,577	-0,107458	22,360000	52,700000
2,849955	-3,576330	93,250	-0,107564	22,360000	52,700000
2,843400	-3,576330	93,909	-0,107564	22,360000	52,700000
2,836958	-3,901451	94,583	-0,107696	22,360000	52,700000
2,830411	-3,641114	95,257	-0,107590	22,360000	52,700000
2,823915	-4,291356	95,963	-0,107855	22,360000	52,700000
2,817456	-5,331503	96,715	-0,108278	22,360000	52,710000
2,810870	-5,007582	97,412	-0,108146	22,360000	52,710000
2,804453	-4,681262	98,070	-0,108014	22,370000	52,715000
2,797967	-5,201935	98,757	-0,108226	22,370000	52,715000
2,791449	-6,306866	99,415	-0,108675	22,370000	52,715000
2,784938	-6,177298	100,088	-0,108623	22,370000	52,715000
2,778471	-3,055657	100,758	-0,107352	22,370000	52,715000
2,771920	0,129568	101,458	-0,106056	22,370000	52,715000
2,765446	1,038947	102,116	-0,105686	22,370000	52,730000
2,758932	0,000000	102,824	-0,106108	22,370000	52,730000
2,752449	0,063585	103,514	-0,106083	22,370000	52,730000
2,745980	0,259137	104,183	-0,106003	22,370000	52,715000
2,739400	-0,065984	104,846	-0,106135	22,370000	52,715000
2,732917	-0,195552	105,521	-0,106188	22,370000	52,715000
2,726493	0,063585	106,213	-0,106083	22,370000	52,730000
2,719931	0,000000	106,878	-0,106108	22,370000	52,730000
2,713443	0,129568	107,576	-0,106056	22,370000	52,730000
2,706963	0,323921	108,279	-0,105977	22,370000	52,730000
2,700467	0,000000	108,965	-0,106108	22,370000	52,730000
2,693934	0,063585	109,619	-0,106083	22,370000	52,730000
2,687407	0,323921	110,279	-0,105977	22,360000	52,710000
2,680988	0,000000	110,978	-0,106108	22,360000	52,710000
2,674410	0,389905	111,664	-0,105950	22,360000	52,710000
2,667964	-0,260337	112,326	-0,106214	22,360000	52,710000
2,661395	-0,520673	113,016	-0,106320	22,360000	52,710000
2,659977	-0,130768	113,166	-0,106162	22,360000	52,710000