File: Nanoindentation Datenauswertung/data/MEMS Resolution Test/MEMS step test,0,5nm,10Hz-3
Quasi static measurement routine
Tip parameters (shape,radius, material...)
17.08.2022

Piezo position[nm]	MEMS displ.[nm]	Time[ms]	Cap [pf]	Temp [°C]	Rh [%]
eoh
2,851902	-0,054902	0,187	-0,057563	22,460000	56,265000
2,852395	0,735926	0,540	-0,057232	22,460000	56,280000
2,852386	0,561874	0,891	-0,057305	22,460000	56,280000
2,852377	0,427538	1,243	-0,057361	22,460000	56,280000
2,852423	0,513980	1,593	-0,057325	22,460000	56,280000
2,852437	0,578228	1,946	-0,057298	22,460000	56,280000
2,852438	0,442724	2,298	-0,057354	22,460000	56,280000
2,852397	0,395998	2,650	-0,057374	22,460000	56,280000
2,852382	0,941518	3,001	-0,057146	22,460000	56,280000
2,852456	0,435715	3,353	-0,057357	22,460000	56,280000
2,852401	0,522157	3,704	-0,057321	22,460000	56,280000
2,852403	0,404175	4,055	-0,057371	22,460000	56,280000
2,852336	0,435715	4,407	-0,057357	22,460000	56,265000
2,852379	0,293202	4,759	-0,057417	22,460000	56,265000
2,852399	0,285025	5,111	-0,057420	22,460000	56,265000
2,852420	0,545520	5,463	-0,057312	22,460000	56,265000
2,852456	0,799006	5,814	-0,057206	22,460000	56,265000
2,852394	0,751112	6,165	-0,057226	22,460000	56,265000
2,852356	0,230123	6,519	-0,057443	22,460000	56,265000
2,852395	0,387821	6,870	-0,057377	22,460000	56,265000
2,852368	-0,094619	7,220	-0,057579	22,460000	56,265000
2,852378	0,331751	7,571	-0,057401	22,460000	56,265000
2,852381	0,071256	7,923	-0,057510	22,460000	56,265000
2,852409	0,157698	8,275	-0,057474	22,460000	56,265000
2,852429	-0,213769	8,627	-0,057629	22,460000	56,255000
2,852412	0,387821	8,980	-0,057377	22,460000	56,255000
2,852389	0,150690	9,333	-0,057477	22,460000	56,255000
2,852399	0,197415	9,686	-0,057457	22,460000	56,255000
2,852402	0,245309	10,041	-0,057437	22,460000	56,255000
2,851906	0,126159	10,376	-0,057487	22,460000	56,310000
2,851840	-0,411184	10,729	-0,057711	22,460000	56,310000
2,851931	-0,182229	11,081	-0,057616	22,460000	56,310000
2,851892	-0,300211	11,432	-0,057665	22,460000	56,310000
2,851912	-0,079433	11,785	-0,057573	22,460000	56,310000
2,851899	-0,633130	12,136	-0,057804	22,460000	56,310000
2,851957	-0,434547	12,488	-0,057721	22,460000	56,255000
2,851919	-0,387821	12,840	-0,057702	22,460000	56,255000
2,851905	-0,411184	13,192	-0,057711	22,460000	56,255000
2,851938	-0,221946	13,543	-0,057632	22,460000	56,255000
2,851896	-0,031540	13,895	-0,057553	22,460000	56,255000
2,851885	-0,664670	14,246	-0,057817	22,460000	56,255000
2,851878	-0,403007	14,598	-0,057708	22,460000	56,240000
2,851956	-0,411184	14,949	-0,057711	22,460000	56,240000
2,851929	-0,339928	15,300	-0,057682	22,460000	56,240000
2,851904	-0,442724	15,652	-0,057725	22,460000	56,240000
2,851913	-0,450901	16,003	-0,057728	22,460000	56,240000
2,851910	-0,387821	16,356	-0,057702	22,460000	56,295000
2,851878	-0,434547	16,709	-0,057721	22,460000	56,295000
2,851963	-0,395998	17,062	-0,057705	22,460000	56,295000
2,851928	-0,498794	17,416	-0,057748	22,460000	56,295000
2,851937	-0,538511	17,768	-0,057765	22,460000	56,295000
2,851931	-0,553697	18,120	-0,057771	22,460000	56,295000
2,851921	-0,293202	18,471	-0,057662	22,460000	56,295000
2,851928	-0,846899	18,824	-0,057894	22,460000	56,295000
2,851927	-0,545520	19,181	-0,057768	22,460000	56,295000
2,851907	-0,293202	19,532	-0,057662	22,460000	56,295000
2,851951	-0,752280	19,882	-0,057854	22,460000	56,295000
2,851903	-0,467255	20,234	-0,057735	22,460000	56,295000
2,852433	0,071256	20,568	-0,057510	22,460000	56,295000
2,852393	0,269840	20,938	-0,057427	22,460000	56,295000
2,852461	0,134336	21,291	-0,057483	22,460000	56,295000
2,852406	-0,023363	21,644	-0,057549	22,460000	56,295000
2,852411	0,237132	21,995	-0,057440	22,460000	56,295000
2,852437	0,316565	22,348	-0,057407	22,460000	56,295000
2,852410	-0,008177	22,699	-0,057543	22,460000	56,295000
2,852432	-0,094619	23,052	-0,057579	22,460000	56,295000
2,852409	0,047894	23,405	-0,057520	22,460000	56,295000
2,852373	0,110973	23,757	-0,057493	22,460000	56,295000
2,852422	0,253486	24,111	-0,057434	22,460000	56,295000
2,852442	0,331751	24,462	-0,057401	22,450000	56,265000
2,852367	-0,142513	24,814	-0,057599	22,450000	56,265000
2,852396	0,031540	25,166	-0,057526	22,450000	56,265000
2,852462	0,182229	25,520	-0,057463	22,450000	56,265000
2,852392	0,190406	25,870	-0,057460	22,450000	56,265000
2,852436	0,197415	26,223	-0,057457	22,450000	56,265000
2,852395	-0,054902	26,577	-0,057563	22,460000	56,265000
2,852436	-0,079433	26,943	-0,057573	22,460000	56,265000
2,852433	0,016354	27,294	-0,057533	22,460000	56,265000
2,852397	0,119150	27,646	-0,057490	22,460000	56,265000
2,852445	0,094619	27,998	-0,057500	22,460000	56,265000
2,852425	0,150690	28,349	-0,057477	22,460000	56,265000
2,852379	0,134336	28,710	-0,057483	22,460000	56,265000
2,852470	0,197415	29,062	-0,057457	22,460000	56,265000
2,852415	0,071256	29,413	-0,057510	22,460000	56,265000
2,852402	0,023363	29,766	-0,057530	22,460000	56,265000
2,852455	-0,157698	30,119	-0,057605	22,460000	56,265000
2,852351	-0,031540	30,470	-0,057553	22,460000	56,265000
2,851892	-0,775643	30,801	-0,057864	22,460000	56,265000
2,851913	-0,846899	31,154	-0,057894	22,460000	56,265000
2,851890	-0,601591	31,506	-0,057791	22,460000	56,265000
2,851914	-0,799006	31,861	-0,057874	22,460000	56,265000
2,851920	-0,767466	32,212	-0,057860	22,460000	56,265000
2,851978	-0,467255	32,562	-0,057735	22,450000	56,265000
2,851910	-0,822368	32,912	-0,057883	22,450000	56,265000
2,851962	-0,442724	33,263	-0,057725	22,450000	56,265000
2,851981	-0,696210	33,616	-0,057831	22,450000	56,265000
2,851892	-0,419361	33,968	-0,057715	22,450000	56,265000
2,851939	-0,261663	34,329	-0,057649	22,460000	56,265000
2,851927	-1,004598	34,680	-0,057959	22,460000	56,265000
2,851889	-0,719572	35,031	-0,057840	22,460000	56,265000
2,851885	-0,379645	35,382	-0,057698	22,460000	56,265000
2,851961	-0,316565	35,736	-0,057672	22,460000	56,265000
2,851954	-0,696210	36,088	-0,057831	22,460000	56,265000
2,851952	-1,321163	36,441	-0,058092	22,460000	56,280000
2,851894	-0,530334	36,803	-0,057761	22,460000	56,280000
2,851891	-0,901802	37,154	-0,057917	22,460000	56,280000
2,851877	-0,419361	37,505	-0,057715	22,460000	56,280000
2,851889	-1,036137	37,858	-0,057973	22,460000	56,280000
2,851928	-0,648316	38,212	-0,057811	22,460000	56,280000
2,851920	-0,775643	38,564	-0,057864	22,460000	56,280000
2,851902	-0,538511	38,917	-0,057765	22,460000	56,280000
2,851912	-0,624953	39,271	-0,057801	22,460000	56,280000
2,851898	-0,688033	39,622	-0,057827	22,460000	56,280000
2,851895	-0,585237	39,974	-0,057784	22,460000	56,280000
2,851880	-0,553697	40,326	-0,057771	22,460000	56,280000
2,851914	-0,339928	40,679	-0,057682	22,460000	56,280000
2,852408	-0,102796	41,019	-0,057583	22,460000	56,280000
2,852484	-0,189238	41,371	-0,057619	22,460000	56,280000
2,852417	-0,094619	41,724	-0,057579	22,460000	56,280000
2,852374	0,119150	42,076	-0,057490	22,460000	56,280000
2,852399	-0,356282	42,428	-0,057688	22,460000	56,265000
2,852479	0,482441	42,779	-0,057338	22,460000	56,265000
2,852412	-0,071256	43,130	-0,057569	22,460000	56,265000
2,852356	-0,119150	43,482	-0,057589	22,460000	56,265000
2,852412	0,094619	43,837	-0,057500	22,460000	56,265000
2,852384	-0,102796	44,192	-0,057583	22,460000	56,265000
2,852395	0,102796	44,542	-0,057497	22,460000	56,295000
2,852419	-0,008177	44,901	-0,057543	22,460000	56,295000
2,852416	-0,079433	45,253	-0,057573	22,460000	56,295000
2,852433	-0,316565	45,606	-0,057672	22,460000	56,295000
2,852386	-0,197415	45,969	-0,057622	22,460000	56,295000
2,852423	-0,023363	46,321	-0,057549	22,460000	56,295000
2,852402	-0,063079	46,671	-0,057566	22,460000	56,295000
2,852423	-0,228955	47,024	-0,057635	22,460000	56,295000
2,852395	-0,332919	47,375	-0,057679	22,460000	56,295000
2,852398	-0,142513	47,727	-0,057599	22,460000	56,295000
2,852376	0,134336	48,079	-0,057483	22,460000	56,295000
2,852364	0,142513	48,432	-0,057480	22,460000	56,255000
2,852456	0,016354	48,782	-0,057533	22,460000	56,255000
2,852399	-0,253486	49,132	-0,057646	22,460000	56,255000
2,852453	-0,300211	49,484	-0,057665	22,460000	56,255000
2,852386	-0,228955	49,835	-0,057635	22,460000	56,255000
2,852393	-0,379645	50,193	-0,057698	22,460000	56,255000
2,852445	0,047894	50,544	-0,057520	22,460000	56,255000
2,852384	-0,174052	50,909	-0,057612	22,460000	56,255000
2,851843	-0,308388	51,248	-0,057668	22,460000	56,255000
2,851914	-0,608599	51,606	-0,057794	22,460000	56,255000
2,851901	-0,593414	51,966	-0,057788	22,460000	56,255000
2,851874	-0,308388	52,320	-0,057668	22,460000	56,265000
2,851917	-0,490618	52,672	-0,057745	22,460000	56,265000
2,851870	-0,681024	53,026	-0,057824	22,460000	56,265000
2,851914	-0,513980	53,380	-0,057754	22,460000	56,265000
2,851857	-0,387821	53,732	-0,057702	22,460000	56,265000
2,851894	-0,744103	54,084	-0,057851	22,460000	56,265000
2,851871	-0,719572	54,436	-0,057840	22,450000	56,265000
2,851860	-0,672847	54,788	-0,057821	22,450000	56,265000
2,851913	-0,513980	55,142	-0,057754	22,450000	56,265000
2,851920	-0,570051	55,502	-0,057778	22,450000	56,265000
2,851950	-0,681024	55,855	-0,057824	22,450000	56,265000
2,851914	-0,506971	56,212	-0,057751	22,450000	56,265000
2,851954	-0,783820	56,563	-0,057867	22,450000	56,265000
2,851936	-0,688033	56,916	-0,057827	22,450000	56,265000
2,851905	-0,641307	57,276	-0,057808	22,450000	56,265000
2,851903	-0,727749	57,629	-0,057844	22,450000	56,265000
2,851941	-0,641307	57,982	-0,057808	22,450000	56,265000
2,851883	-0,474264	58,336	-0,057738	22,450000	56,265000
2,851876	-0,633130	58,688	-0,057804	22,450000	56,265000
2,851882	-0,633130	59,059	-0,057804	22,450000	56,265000
2,851848	-0,403007	59,423	-0,057708	22,450000	56,265000
2,851930	-0,624953	59,782	-0,057801	22,450000	56,265000
2,851917	-0,403007	60,133	-0,057708	22,450000	56,265000
2,851919	-0,688033	60,486	-0,057827	22,450000	56,265000
2,851894	-0,371468	60,840	-0,057695	22,450000	56,265000
2,851894	-0,941518	61,191	-0,057933	22,450000	56,265000