File: Nanoindentation Datenauswertung/data/MEMS Resolution Test/MEMS step test,0,5nm,10Hz-4
Quasi static measurement routine
Tip parameters (shape,radius, material...)
17.08.2022

Piezo position[nm]	MEMS displ.[nm]	Time[ms]	Cap [pf]	Temp [°C]	Rh [%]
eoh
2,851931	0,363291	0,207	-0,057880	22,450000	56,240000
2,852455	0,782652	0,558	-0,057705	22,450000	56,265000
2,852410	0,545520	0,908	-0,057804	22,450000	56,265000
2,852386	0,537343	1,263	-0,057808	22,450000	56,265000
2,852439	0,671679	1,617	-0,057751	22,450000	56,265000
2,852428	0,403007	1,969	-0,057864	22,450000	56,265000
2,852421	0,807183	2,320	-0,057695	22,450000	56,265000
2,852405	0,220778	2,673	-0,057940	22,450000	56,255000
2,852382	0,482441	3,025	-0,057831	22,450000	56,255000
2,852373	0,505803	3,375	-0,057821	22,450000	56,255000
2,852444	0,981235	3,726	-0,057622	22,450000	56,255000
2,852395	0,530334	4,081	-0,057811	22,450000	56,255000
2,852439	0,426370	4,431	-0,057854	22,450000	56,255000
2,852405	0,711395	4,784	-0,057735	22,460000	56,255000
2,852432	0,790829	5,136	-0,057702	22,460000	56,255000
2,852407	0,474264	5,486	-0,057834	22,460000	56,255000
2,852446	0,601591	5,837	-0,057781	22,460000	56,255000
2,852393	0,300211	6,188	-0,057907	22,460000	56,255000
2,852382	0,751112	6,540	-0,057718	22,450000	56,265000
2,852429	0,537343	6,891	-0,057808	22,450000	56,265000
2,852436	0,759289	7,242	-0,057715	22,450000	56,265000
2,852385	0,300211	7,594	-0,057907	22,450000	56,265000
2,852414	0,356282	7,945	-0,057883	22,450000	56,265000
2,852417	0,671679	8,297	-0,057751	22,450000	56,265000
2,852389	0,466087	8,648	-0,057837	22,450000	56,265000
2,852444	0,174052	8,999	-0,057959	22,450000	56,265000
2,852491	0,015186	9,354	-0,058026	22,450000	56,265000
2,852409	0,656493	9,705	-0,057758	22,450000	56,265000
2,852446	0,497626	10,058	-0,057824	22,450000	56,265000
2,851895	0,379645	10,394	-0,057874	22,450000	56,265000
2,851882	0,134336	10,745	-0,057976	22,460000	56,255000
2,851885	0,371468	11,098	-0,057877	22,460000	56,255000
2,851934	0,102796	11,449	-0,057989	22,460000	56,255000
2,851915	0,110973	11,803	-0,057986	22,460000	56,255000
2,851950	0,157698	12,155	-0,057966	22,460000	56,255000
2,851945	0,094619	12,508	-0,057993	22,450000	56,265000
2,851886	-0,016354	12,861	-0,058039	22,450000	56,265000
2,851938	0,181061	13,214	-0,057957	22,450000	56,265000
2,851921	0,031540	13,566	-0,058019	22,450000	56,265000
2,851920	-0,134336	13,917	-0,058088	22,450000	56,265000
2,851929	-0,230123	14,268	-0,058128	22,450000	56,265000
2,851922	0,046725	14,618	-0,058013	22,450000	56,265000
2,851947	0,046725	14,969	-0,058013	22,450000	56,265000
2,851895	0,292034	15,322	-0,057910	22,450000	56,265000
2,851903	0,015186	15,673	-0,058026	22,450000	56,265000
2,851911	0,228955	16,024	-0,057937	22,450000	56,265000
2,851952	0,189238	16,377	-0,057953	22,450000	56,265000
2,851970	-0,056071	16,729	-0,058056	22,460000	56,265000
2,851928	0,220778	17,084	-0,057940	22,460000	56,265000
2,851937	0,126159	17,436	-0,057979	22,460000	56,265000
2,851919	-0,008177	17,787	-0,058036	22,460000	56,265000
2,851898	-0,127327	18,137	-0,058085	22,460000	56,265000
2,851893	0,324742	18,490	-0,057896	22,460000	56,265000
2,851933	0,031540	18,844	-0,058019	22,460000	56,265000
2,851932	-0,142513	19,194	-0,058092	22,460000	56,265000
2,851901	-0,119150	19,546	-0,058082	22,460000	56,265000
2,851961	-0,238300	19,896	-0,058132	22,460000	56,265000
2,851913	-0,268672	20,246	-0,058145	22,460000	56,265000
2,852469	0,245309	20,590	-0,057930	22,470000	56,240000
2,852393	0,142513	20,942	-0,057973	22,470000	56,240000
2,852423	0,007009	21,296	-0,058029	22,470000	56,240000
2,852427	0,371468	21,647	-0,057877	22,470000	56,240000
2,852442	0,228955	22,002	-0,057937	22,470000	56,240000
2,852403	0,363291	22,355	-0,057880	22,470000	56,240000
2,852406	0,426370	22,707	-0,057854	22,460000	56,240000
2,852475	0,537343	23,059	-0,057808	22,460000	56,240000
2,852411	0,735926	23,413	-0,057725	22,460000	56,240000
2,852423	0,608599	23,766	-0,057778	22,460000	56,240000
2,852425	0,593414	24,117	-0,057784	22,460000	56,240000
2,852440	0,648316	24,470	-0,057761	22,460000	56,240000
2,852392	0,371468	24,822	-0,057877	22,450000	56,240000
2,852454	0,553697	25,175	-0,057801	22,450000	56,240000
2,852395	0,466087	25,525	-0,057837	22,450000	56,240000
2,852425	0,474264	25,875	-0,057834	22,450000	56,240000
2,852427	0,815360	26,228	-0,057691	22,450000	56,240000
2,852381	0,570051	26,580	-0,057794	22,460000	56,280000
2,852399	0,561874	26,930	-0,057797	22,460000	56,280000
2,852424	1,052491	27,281	-0,057592	22,460000	56,280000
2,852510	0,671679	27,649	-0,057751	22,460000	56,280000
2,852431	0,530334	28,005	-0,057811	22,460000	56,280000
2,852466	0,696210	28,357	-0,057741	22,460000	56,280000
2,852460	0,767466	28,708	-0,057711	22,460000	56,280000
2,852481	0,434547	29,062	-0,057851	22,460000	56,280000
2,852420	0,949695	29,415	-0,057635	22,460000	56,280000
2,852407	0,759289	29,767	-0,057715	22,460000	56,280000
2,852426	0,759289	30,119	-0,057715	22,460000	56,280000
2,852446	0,276848	30,470	-0,057917	22,460000	56,280000
2,851901	0,252318	30,806	-0,057927	22,460000	56,240000
2,851906	0,046725	31,156	-0,058013	22,460000	56,240000
2,851946	-0,024531	31,506	-0,058042	22,460000	56,240000
2,851960	0,174052	31,859	-0,057959	22,460000	56,240000
2,851924	0,220778	32,210	-0,057940	22,460000	56,240000
2,851925	0,260495	32,563	-0,057923	22,460000	56,265000
2,851913	0,292034	32,915	-0,057910	22,460000	56,265000
2,851937	0,466087	33,268	-0,057837	22,460000	56,265000
2,851907	0,403007	33,620	-0,057864	22,460000	56,265000
2,851954	0,664670	33,975	-0,057754	22,460000	56,265000
2,851955	0,212601	34,333	-0,057943	22,460000	56,265000
2,851898	0,212601	34,689	-0,057943	22,450000	56,265000
2,851945	0,110973	35,047	-0,057986	22,450000	56,265000
2,851881	0,490618	35,408	-0,057827	22,450000	56,265000
2,851983	0,497626	35,759	-0,057824	22,450000	56,265000
2,851917	0,063079	36,110	-0,058006	22,450000	56,265000
2,851912	0,039717	36,460	-0,058016	22,450000	56,265000
2,851887	-0,016354	36,810	-0,058039	22,450000	56,240000
2,851942	0,245309	37,163	-0,057930	22,450000	56,240000
2,851913	0,245309	37,515	-0,057930	22,450000	56,240000
2,851873	0,419361	37,866	-0,057857	22,450000	56,240000
2,851948	-0,016354	38,218	-0,058039	22,450000	56,240000
2,851906	0,537343	38,570	-0,057808	22,450000	56,240000
2,851963	0,442724	38,923	-0,057847	22,450000	56,240000
2,851914	0,134336	39,283	-0,057976	22,450000	56,240000
2,851943	-0,094619	39,636	-0,058072	22,450000	56,240000
2,851938	0,300211	39,989	-0,057907	22,450000	56,240000
2,851932	-0,261663	40,344	-0,058142	22,450000	56,240000
2,851934	0,134336	40,694	-0,057976	22,450000	56,265000
2,852437	0,577060	41,029	-0,057791	22,450000	56,265000
2,852482	0,553697	41,383	-0,057801	22,450000	56,265000
2,852428	0,719572	41,735	-0,057731	22,450000	56,265000
2,852436	0,679856	42,085	-0,057748	22,450000	56,265000
2,852441	0,853908	42,440	-0,057675	22,450000	56,265000
2,852404	0,513980	42,795	-0,057817	22,460000	56,265000
2,852400	0,434547	43,150	-0,057851	22,460000	56,265000
2,852392	0,513980	43,507	-0,057817	22,460000	56,265000
2,852412	0,316565	43,863	-0,057900	22,460000	56,265000
2,852387	0,403007	44,215	-0,057864	22,460000	56,265000
2,852468	0,704387	44,566	-0,057738	22,460000	56,265000
2,852379	0,767466	44,916	-0,057711	22,460000	56,265000
2,852420	0,371468	45,266	-0,057877	22,460000	56,265000
2,852383	0,671679	45,618	-0,057751	22,460000	56,265000
2,852429	0,371468	45,969	-0,057877	22,460000	56,265000
2,852460	0,553697	46,320	-0,057801	22,460000	56,265000
2,852441	0,577060	46,670	-0,057791	22,460000	56,255000
2,852439	0,419361	47,021	-0,057857	22,460000	56,255000
2,852388	0,285025	47,373	-0,057913	22,460000	56,255000
2,852395	0,197415	47,725	-0,057950	22,460000	56,255000
2,852433	0,228955	48,075	-0,057937	22,460000	56,255000
2,852412	0,719572	48,429	-0,057731	22,460000	56,255000
2,852431	0,679856	48,786	-0,057748	22,460000	56,255000
2,852399	0,893625	49,148	-0,057659	22,460000	56,255000
2,852419	0,285025	49,498	-0,057913	22,460000	56,255000
2,852424	0,450901	49,857	-0,057844	22,460000	56,255000
2,852431	-0,087610	50,218	-0,058069	22,460000	56,255000
2,852438	0,023363	50,571	-0,058022	22,460000	56,280000
2,852412	0,356282	50,925	-0,057883	22,460000	56,280000
2,851924	-0,206760	51,258	-0,058119	22,460000	56,280000
2,851933	-0,016354	51,616	-0,058039	22,460000	56,280000
2,851951	-0,190406	51,967	-0,058112	22,460000	56,280000
2,851927	-0,253486	52,321	-0,058138	22,460000	56,280000
2,851956	-0,102796	52,673	-0,058075	22,460000	56,265000
2,851876	-0,024531	53,025	-0,058042	22,460000	56,265000
2,851902	-0,119150	53,378	-0,058082	22,460000	56,265000
2,851963	-0,056071	53,730	-0,058056	22,460000	56,265000
2,851908	0,117982	54,080	-0,057983	22,460000	56,265000
2,851957	0,000000	54,430	-0,058032	22,460000	56,265000
2,851941	0,039717	54,785	-0,058016	22,450000	56,225000
2,851915	0,459078	55,135	-0,057840	22,450000	56,225000
2,851886	0,063079	55,488	-0,058006	22,450000	56,225000
2,851983	-0,332919	55,840	-0,058171	22,450000	56,225000
2,851890	0,245309	56,196	-0,057930	22,450000	56,225000
2,851966	-0,190406	56,546	-0,058112	22,450000	56,225000
2,851912	-0,016354	56,906	-0,058039	22,450000	56,225000
2,851887	-0,094619	57,258	-0,058072	22,450000	56,225000
2,851901	0,000000	57,610	-0,058032	22,450000	56,225000
2,851917	0,134336	57,964	-0,057976	22,450000	56,225000
2,851917	0,134336	58,330	-0,057976	22,450000	56,225000
2,851948	0,023363	58,683	-0,058022	22,460000	56,225000
2,851921	-0,039717	59,035	-0,058049	22,460000	56,225000
2,851939	-0,190406	59,387	-0,058112	22,460000	56,225000
2,851964	-0,094619	59,737	-0,058072	22,460000	56,225000
2,851939	-0,253486	60,090	-0,058138	22,460000	56,225000
2,851944	0,134336	60,441	-0,057976	22,460000	56,225000
2,851942	-0,063079	60,794	-0,058059	22,460000	56,265000
2,852003	-0,387821	61,160	-0,058194	22,460000	56,265000