File: Nanoindentation Datenauswertung/data/MEMS Resolution Test/MEMS step test,1nm,10Hz-3
Quasi static measurement routine
Tip parameters (shape,radius, material...)
17.08.2022

Piezo position[nm]	MEMS displ.[nm]	Time[ms]	Cap [pf]	Temp [°C]	Rh [%]
eoh
2,783894	0,513980	0,207	-0,071418	22,460000	56,730000
2,784865	0,996421	2,559	-0,071217	22,460000	56,740000
2,784908	1,107394	3,011	-0,071170	22,460000	56,740000
2,784892	0,909979	3,461	-0,071253	22,460000	56,740000
2,784916	0,672847	3,911	-0,071352	22,460000	56,740000
2,784905	0,885448	4,362	-0,071263	22,460000	56,740000
2,784842	0,767466	4,813	-0,071313	22,460000	56,740000
2,784878	0,799006	5,265	-0,071299	22,460000	56,740000
2,784840	0,696210	5,721	-0,071342	22,460000	56,740000
2,784874	0,490618	6,173	-0,071428	22,460000	56,740000
2,784873	0,838722	6,624	-0,071283	22,460000	56,740000
2,784916	0,878439	7,078	-0,071266	22,460000	56,740000
2,784899	0,799006	7,530	-0,071299	22,460000	56,740000
2,784946	0,601591	7,981	-0,071382	22,470000	56,730000
2,784882	0,909979	8,433	-0,071253	22,470000	56,730000
2,784905	0,744103	8,883	-0,071322	22,470000	56,730000
2,784894	0,609767	9,335	-0,071378	22,470000	56,730000
2,784855	1,012775	9,788	-0,071210	22,470000	56,730000
2,784920	1,297800	10,241	-0,071091	22,470000	56,730000
2,784879	0,679856	10,693	-0,071349	22,470000	56,730000
2,784906	0,679856	11,145	-0,071349	22,470000	56,730000
2,784915	0,807183	11,597	-0,071296	22,470000	56,730000
2,784960	0,704387	12,049	-0,071339	22,460000	56,740000
2,783856	-0,467255	13,432	-0,071829	22,460000	56,740000
2,783867	-0,356282	13,885	-0,071782	22,460000	56,740000
2,783913	-0,087610	14,338	-0,071670	22,460000	56,740000
2,783850	-0,189238	14,788	-0,071712	22,460000	56,740000
2,783922	-0,348105	15,241	-0,071779	22,460000	56,740000
2,783954	-0,704387	15,692	-0,071928	22,460000	56,740000
2,783906	-0,434547	16,146	-0,071815	22,460000	56,740000
2,783919	-0,237132	16,598	-0,071732	22,460000	56,740000
2,783876	-0,467255	17,050	-0,071829	22,460000	56,740000
2,783906	-0,197415	17,501	-0,071716	22,460000	56,740000
2,783905	-0,197415	17,955	-0,071716	22,460000	56,730000
2,783879	-0,522157	18,409	-0,071852	22,460000	56,730000
2,783916	-0,237132	18,859	-0,071732	22,460000	56,730000
2,783905	-0,127327	19,311	-0,071687	22,460000	56,730000
2,783908	-0,102796	19,763	-0,071676	22,460000	56,740000
2,783911	-0,372636	20,215	-0,071789	22,460000	56,740000
2,783882	-0,339928	20,666	-0,071775	22,460000	56,740000
2,783930	-0,119150	21,117	-0,071683	22,460000	56,740000
2,783860	-0,023363	21,567	-0,071643	22,460000	56,740000
2,783907	-0,356282	22,020	-0,071782	22,460000	56,730000
2,783928	-0,578228	22,471	-0,071875	22,460000	56,730000
2,783927	-0,419361	22,922	-0,071809	22,460000	56,730000
2,784951	-0,364459	23,360	-0,071786	22,460000	56,730000
2,784924	0,624953	24,763	-0,071372	22,460000	56,730000
2,784902	0,459078	25,217	-0,071441	22,460000	56,730000
2,784907	0,435715	25,670	-0,071451	22,460000	56,730000
2,784895	0,530334	26,124	-0,071412	22,460000	56,730000
2,784890	0,641307	26,576	-0,071365	22,460000	56,730000
2,784958	0,815360	27,030	-0,071292	22,460000	56,730000
2,784938	0,237132	27,483	-0,071534	22,460000	56,730000
2,784890	0,545520	27,935	-0,071405	22,460000	56,715000
2,784876	0,395998	28,389	-0,071468	22,460000	56,715000
2,784892	0,649484	28,842	-0,071362	22,460000	56,715000
2,784925	0,505803	29,295	-0,071422	22,460000	56,715000
2,784951	0,498794	29,745	-0,071425	22,460000	56,740000
2,784931	0,561874	30,196	-0,071398	22,460000	56,740000
2,784860	0,260495	30,648	-0,071524	22,460000	56,740000
2,784924	0,142513	31,099	-0,071574	22,460000	56,740000
2,784930	0,435715	31,550	-0,071451	22,460000	56,740000
2,784878	0,846899	32,000	-0,071279	22,460000	56,755000
2,784905	0,513980	32,452	-0,071418	22,460000	56,755000
2,784884	0,119150	32,904	-0,071583	22,460000	56,755000
2,784915	0,016354	33,358	-0,071626	22,460000	56,755000
2,784922	0,079433	33,811	-0,071600	22,460000	56,755000
2,784887	0,197415	34,263	-0,071551	22,460000	56,755000
2,783870	-0,966049	35,647	-0,072037	22,460000	56,755000
2,783895	-0,467255	36,102	-0,071829	22,460000	56,740000
2,783893	-0,933341	36,553	-0,072023	22,460000	56,740000
2,783907	-0,522157	37,008	-0,071852	22,460000	56,740000
2,783921	-0,735926	37,460	-0,071941	22,460000	56,740000
2,783936	-0,815360	37,917	-0,071974	22,460000	56,740000
2,783920	-1,147110	38,369	-0,072113	22,460000	56,740000
2,783922	-1,115571	38,819	-0,072100	22,460000	56,740000
2,783944	-0,893625	39,274	-0,072007	22,460000	56,740000
2,783890	-1,312986	39,727	-0,072182	22,460000	56,730000
2,783886	-0,807183	40,181	-0,071971	22,460000	56,730000
2,783902	-0,641307	40,633	-0,071901	22,460000	56,730000
2,783902	-1,029129	41,094	-0,072063	22,460000	56,730000
2,783924	-0,807183	41,547	-0,071971	22,460000	56,730000
2,783879	-1,186827	42,001	-0,072129	22,460000	56,755000
2,783964	-0,799006	42,454	-0,071967	22,460000	56,755000
2,783956	-1,115571	42,907	-0,072100	22,460000	56,755000
2,783917	-1,186827	43,361	-0,072129	22,460000	56,755000
2,783917	-0,862085	43,811	-0,071994	22,460000	56,755000
2,783897	-0,966049	44,265	-0,072037	22,460000	56,755000
2,783879	-0,862085	44,726	-0,071994	22,460000	56,755000
2,783956	-0,878439	45,178	-0,072000	22,460000	56,755000
2,784964	-0,008177	46,568	-0,071637	22,460000	56,740000
2,784941	-0,419361	47,019	-0,071809	22,460000	56,740000
2,784914	0,008177	47,478	-0,071630	22,460000	56,740000
2,784906	-0,228955	47,933	-0,071729	22,460000	56,730000
2,784888	-0,387821	48,386	-0,071795	22,460000	56,730000
2,784923	0,213769	48,840	-0,071544	22,460000	56,730000
2,784930	0,031540	49,294	-0,071620	22,460000	56,730000
2,784885	0,157698	49,751	-0,071567	22,460000	56,740000
2,784893	-0,253486	50,204	-0,071739	22,460000	56,740000
2,784881	-0,498794	50,655	-0,071842	22,460000	56,740000
2,784885	-0,174052	51,108	-0,071706	22,460000	56,740000
2,784958	0,063079	51,559	-0,071607	22,460000	56,740000
2,784923	-0,268672	52,011	-0,071746	22,460000	56,740000
2,784899	-0,119150	52,461	-0,071683	22,460000	56,740000
2,784959	-0,142513	52,914	-0,071693	22,460000	56,740000
2,784873	-0,467255	53,364	-0,071829	22,460000	56,740000
2,784964	-0,411184	53,817	-0,071805	22,470000	56,730000
2,784960	-0,079433	54,268	-0,071667	22,470000	56,730000
2,784906	0,110973	54,729	-0,071587	22,470000	56,730000
2,784876	-0,237132	55,191	-0,071732	22,470000	56,730000
2,784942	-0,094619	55,641	-0,071673	22,470000	56,730000
2,784888	-0,023363	56,107	-0,071643	22,460000	56,700000
2,784944	-0,205592	56,562	-0,071719	22,460000	56,700000
2,783928	-1,258084	57,969	-0,072159	22,450000	56,730000
2,783876	-0,759289	58,422	-0,071951	22,450000	56,730000
2,783894	-1,582826	58,873	-0,072295	22,450000	56,730000
2,783907	-1,985833	59,328	-0,072463	22,450000	56,730000
2,783913	-1,591003	59,789	-0,072298	22,460000	56,740000
2,783902	-1,645905	60,242	-0,072321	22,460000	56,740000
2,783949	-1,614365	60,707	-0,072308	22,460000	56,740000
2,783888	-1,566472	61,167	-0,072288	22,460000	56,740000
2,783916	-1,463676	61,617	-0,072245	22,460000	56,740000
2,783926	-1,740524	62,070	-0,072361	22,460000	56,755000
2,783873	-1,385410	62,521	-0,072212	22,460000	56,755000
2,783890	-1,392419	62,972	-0,072215	22,460000	56,755000
2,783963	-1,369057	63,423	-0,072206	22,460000	56,755000
2,783961	-1,765055	63,877	-0,072371	22,460000	56,755000
2,783885	-1,558295	64,355	-0,072285	22,460000	56,755000
2,783945	-1,796595	64,809	-0,072384	22,460000	56,755000
2,783915	-1,400596	65,269	-0,072219	22,460000	56,755000
2,783944	-1,440313	65,720	-0,072235	22,450000	56,730000
2,783935	-1,463676	66,173	-0,072245	22,450000	56,730000
2,783915	-1,534932	66,629	-0,072275	22,450000	56,730000
2,783908	-2,017373	67,117	-0,072477	22,450000	56,730000
2,783912	-1,914576	67,571	-0,072434	22,450000	56,730000
2,784927	-0,744103	68,957	-0,071944	22,460000	56,715000
2,784936	-1,004598	69,415	-0,072053	22,460000	56,715000
2,784941	-0,498794	69,877	-0,071842	22,460000	56,740000
2,784943	-0,696210	70,354	-0,071924	22,460000	56,740000
2,784917	-0,530334	70,811	-0,071855	22,460000	56,740000
2,784903	-0,719572	71,266	-0,071934	22,460000	56,740000
2,784908	-0,681024	71,717	-0,071918	22,450000	56,730000
2,784897	-0,624953	72,173	-0,071895	22,450000	56,730000
2,784916	-0,823537	72,624	-0,071978	22,450000	56,730000
2,784901	-0,585237	73,080	-0,071878	22,450000	56,730000
2,784909	-0,616776	73,547	-0,071891	22,450000	56,730000
2,784858	-0,664670	74,003	-0,071911	22,450000	56,730000
2,784906	-0,727749	74,456	-0,071938	22,450000	56,730000
2,784911	-0,681024	74,923	-0,071918	22,450000	56,730000
2,784932	-0,926333	75,378	-0,072021	22,450000	56,730000
2,784859	-0,688033	75,833	-0,071921	22,460000	56,730000
2,784905	-0,878439	76,285	-0,072000	22,460000	56,730000
2,784924	-0,759289	76,737	-0,071951	22,460000	56,730000
2,784884	-0,744103	77,189	-0,071944	22,460000	56,730000
2,784902	-0,752280	77,647	-0,071948	22,460000	56,730000
2,784923	-1,084031	78,107	-0,072086	22,460000	56,730000
2,784916	-0,530334	78,568	-0,071855	22,460000	56,730000
2,784942	-1,138934	79,025	-0,072109	22,460000	56,730000
2,783920	-1,939107	80,433	-0,072444	22,450000	56,715000
2,783931	-1,828134	80,900	-0,072397	22,450000	56,715000
2,783941	-2,128346	81,358	-0,072523	22,450000	56,715000
2,783892	-1,811780	81,813	-0,072391	22,450000	56,715000
2,783896	-2,065266	82,278	-0,072497	22,450000	56,715000
2,783928	-1,970647	82,750	-0,072457	22,450000	56,715000
2,783916	-2,184416	83,213	-0,072546	22,450000	56,715000
2,783973	-2,050080	83,664	-0,072490	22,460000	56,730000
2,783938	-1,772064	84,124	-0,072374	22,460000	56,730000
2,783926	-2,017373	84,581	-0,072477	22,460000	56,730000
2,783896	-2,159885	85,040	-0,072536	22,460000	56,730000
2,783854	-1,828134	85,493	-0,072397	22,460000	56,730000
2,783939	-2,033726	85,963	-0,072483	22,460000	56,730000
2,783909	-2,065266	86,433	-0,072497	22,460000	56,730000
2,783902	-2,270858	86,886	-0,072583	22,460000	56,730000
2,783934	-2,104983	87,337	-0,072513	22,460000	56,730000
2,783912	-2,159885	87,799	-0,072536	22,470000	56,730000
2,783919	-2,025549	88,249	-0,072480	22,470000	56,730000
2,783952	-1,962470	88,740	-0,072454	22,470000	56,730000
2,783908	-2,033726	89,192	-0,072483	22,470000	56,730000
2,783851	-1,859674	89,666	-0,072411	22,470000	56,730000
2,783913	-2,065266	90,121	-0,072497	22,470000	56,730000
2,783919	-2,120169	90,336	-0,072520	22,470000	56,730000