File: Nanoindentation Datenauswertung/data/MEMS Resolution Test/MEMS step test,0,5nm,10Hz-2
Quasi static measurement routine
Tip parameters (shape,radius, material...)
17.08.2022

Piezo position[nm]	MEMS displ.[nm]	Time[ms]	Cap [pf]	Temp [°C]	Rh [%]
eoh
2,851928	-0,174052	0,189	-0,056736	22,460000	56,310000
2,852386	0,293202	0,546	-0,056541	22,460000	56,310000
2,852379	0,316565	0,897	-0,056531	22,460000	56,310000
2,852395	0,309556	1,248	-0,056534	22,460000	56,310000
2,852390	0,838722	1,598	-0,056313	22,450000	56,280000
2,852391	0,205592	1,951	-0,056577	22,450000	56,280000
2,852401	-0,165875	2,304	-0,056732	22,450000	56,280000
2,852388	0,379645	2,655	-0,056504	22,450000	56,280000
2,852403	0,110973	3,008	-0,056617	22,450000	56,280000
2,852390	0,276848	3,361	-0,056547	22,450000	56,280000
2,852437	0,119150	3,712	-0,056613	22,450000	56,280000
2,852419	0,490618	4,065	-0,056458	22,450000	56,280000
2,852406	-0,023363	4,417	-0,056673	22,450000	56,280000
2,852426	-0,142513	4,768	-0,056723	22,450000	56,280000
2,852411	0,119150	5,118	-0,056613	22,450000	56,280000
2,852411	-0,182229	5,470	-0,056739	22,450000	56,280000
2,852406	-0,253486	5,822	-0,056769	22,460000	56,310000
2,852410	-0,157698	6,174	-0,056729	22,460000	56,310000
2,852407	-0,182229	6,526	-0,056739	22,460000	56,310000
2,852407	-0,117982	6,878	-0,056712	22,460000	56,310000
2,852457	0,301379	7,229	-0,056537	22,460000	56,310000
2,852393	-0,205592	7,582	-0,056749	22,460000	56,310000
2,852469	-0,260495	7,933	-0,056772	22,460000	56,310000
2,852413	-0,616776	8,285	-0,056921	22,460000	56,310000
2,852394	-0,110973	8,635	-0,056709	22,460000	56,310000
2,852416	-0,117982	8,987	-0,056712	22,460000	56,310000
2,852434	-0,142513	9,338	-0,056723	22,460000	56,310000
2,852481	0,095787	9,690	-0,056623	22,450000	56,280000
2,852384	-0,300211	10,044	-0,056789	22,450000	56,280000
2,851900	-0,331751	10,379	-0,056802	22,450000	56,280000
2,851905	-0,696210	10,732	-0,056954	22,450000	56,280000
2,851902	-0,830545	11,084	-0,057010	22,450000	56,280000
2,851885	-0,775643	11,435	-0,056987	22,450000	56,280000
2,851894	-0,759289	11,787	-0,056980	22,460000	56,295000
2,851870	-0,901802	12,138	-0,057040	22,460000	56,295000
2,851904	-0,585237	12,489	-0,056908	22,460000	56,295000
2,851928	-0,767466	12,841	-0,056984	22,460000	56,295000
2,851899	-0,964881	13,192	-0,057066	22,460000	56,295000
2,851939	-0,981235	13,545	-0,057073	22,460000	56,295000
2,851892	-0,846899	13,899	-0,057017	22,460000	56,310000
2,851969	-0,593414	14,251	-0,056911	22,460000	56,310000
2,851920	-1,044314	14,604	-0,057100	22,460000	56,310000
2,851888	-0,926333	14,955	-0,057050	22,460000	56,310000
2,851908	-1,027961	15,306	-0,057093	22,460000	56,310000
2,851902	-0,822368	15,658	-0,057007	22,460000	56,310000
2,851927	-0,981235	16,012	-0,057073	22,460000	56,310000
2,851963	-0,664670	16,362	-0,056941	22,460000	56,310000
2,851919	-0,744103	16,714	-0,056974	22,460000	56,310000
2,851931	-0,751112	17,067	-0,056977	22,460000	56,310000
2,851922	-0,846899	17,418	-0,057017	22,460000	56,310000
2,851882	-0,751112	17,770	-0,056977	22,460000	56,295000
2,851881	-0,964881	18,123	-0,057066	22,460000	56,295000
2,851913	-0,846899	18,474	-0,057017	22,460000	56,295000
2,851899	-0,893625	18,825	-0,057037	22,460000	56,295000
2,851881	-0,775643	19,176	-0,056987	22,460000	56,295000
2,851909	-0,878439	19,527	-0,057030	22,460000	56,295000
2,851926	-0,608599	19,879	-0,056917	22,460000	56,310000
2,851879	-0,403007	20,231	-0,056832	22,460000	56,310000
2,852398	-0,071256	20,573	-0,056693	22,460000	56,310000
2,852387	0,000000	20,924	-0,056663	22,460000	56,310000
2,852411	0,063079	21,276	-0,056637	22,460000	56,310000
2,852481	-0,268672	21,626	-0,056775	22,460000	56,295000
2,852367	0,095787	21,980	-0,056623	22,460000	56,295000
2,852425	-0,102796	22,332	-0,056706	22,460000	56,295000
2,852442	0,063079	22,691	-0,056637	22,460000	56,295000
2,852469	-0,213769	23,043	-0,056752	22,460000	56,295000
2,852505	-0,323574	23,395	-0,056798	22,460000	56,295000
2,852393	-0,157698	23,768	-0,056729	22,460000	56,295000
2,852394	0,158867	24,123	-0,056597	22,460000	56,295000
2,852410	-0,102796	24,474	-0,056706	22,460000	56,295000
2,852475	-0,237132	24,825	-0,056762	22,460000	56,295000
2,852450	-0,197415	25,175	-0,056746	22,460000	56,295000
2,852425	-0,371468	25,527	-0,056818	22,460000	56,295000
2,852435	-0,047894	25,877	-0,056683	22,460000	56,280000
2,852388	-0,117982	26,231	-0,056712	22,460000	56,280000
2,852388	-0,245309	26,584	-0,056766	22,460000	56,280000
2,852447	-0,079433	26,938	-0,056696	22,460000	56,280000
2,852437	-0,293202	27,289	-0,056786	22,460000	56,280000
2,852421	-0,079433	27,641	-0,056696	22,460000	56,280000
2,852467	-0,102796	27,995	-0,056706	22,460000	56,280000
2,852487	-0,260495	28,347	-0,056772	22,460000	56,280000
2,852422	-0,015186	28,699	-0,056669	22,460000	56,280000
2,852411	0,079433	29,049	-0,056630	22,460000	56,280000
2,852459	-0,054902	29,400	-0,056686	22,460000	56,280000
2,852506	-0,522157	29,754	-0,056881	22,450000	56,295000
2,852376	-0,213769	30,104	-0,056752	22,450000	56,295000
2,852454	-0,197415	30,454	-0,056746	22,450000	56,295000
2,851992	-0,941518	30,785	-0,057057	22,450000	56,295000
2,851874	-0,308388	31,136	-0,056792	22,450000	56,295000
2,851878	-0,585237	31,487	-0,056908	22,450000	56,295000
2,851948	-0,467255	31,838	-0,056858	22,450000	56,295000
2,851934	-0,712564	32,188	-0,056961	22,450000	56,295000
2,851950	-0,727749	32,542	-0,056967	22,450000	56,295000
2,851932	-0,553697	32,894	-0,056895	22,450000	56,295000
2,851940	-0,593414	33,248	-0,056911	22,450000	56,295000
2,851940	-0,379645	33,604	-0,056822	22,460000	56,295000
2,851885	-0,427538	33,956	-0,056842	22,460000	56,295000
2,851968	-0,893625	34,312	-0,057037	22,460000	56,295000
2,851894	0,031540	34,663	-0,056650	22,460000	56,295000
2,851876	-0,641307	35,014	-0,056931	22,460000	56,295000
2,851945	-0,767466	35,364	-0,056984	22,460000	56,295000
2,851934	-0,427538	35,716	-0,056842	22,460000	56,310000
2,851872	-0,568883	36,068	-0,056901	22,460000	56,310000
2,851882	-0,846899	36,420	-0,057017	22,460000	56,310000
2,851899	-0,221946	36,772	-0,056756	22,460000	56,310000
2,851929	-0,253486	37,123	-0,056769	22,460000	56,310000
2,851913	-0,782652	37,473	-0,056990	22,460000	56,310000
2,851900	-0,450901	37,825	-0,056852	22,460000	56,280000
2,851944	-0,641307	38,188	-0,056931	22,460000	56,280000
2,851942	-0,608599	38,543	-0,056917	22,460000	56,280000
2,851857	-0,539679	38,894	-0,056889	22,460000	56,280000
2,851877	-0,886616	39,245	-0,057034	22,460000	56,280000
2,851854	-0,537343	39,595	-0,056888	22,460000	56,280000
2,851883	-0,553697	39,952	-0,056895	22,460000	56,280000
2,851899	-0,775643	40,305	-0,056987	22,460000	56,280000
2,851877	-0,799006	40,657	-0,056997	22,460000	56,280000
2,852420	-0,577060	40,988	-0,056904	22,460000	56,280000
2,852393	-0,387821	41,338	-0,056825	22,460000	56,280000
2,852429	-0,197415	41,693	-0,056746	22,460000	56,280000
2,852368	-0,182229	42,045	-0,056739	22,460000	56,280000
2,852412	-0,182229	42,398	-0,056739	22,460000	56,280000
2,852406	0,000000	42,748	-0,056663	22,460000	56,280000
2,852386	-0,071256	43,098	-0,056693	22,460000	56,280000
2,852418	0,174052	43,452	-0,056590	22,460000	56,280000
2,852384	-0,237132	43,804	-0,056762	22,460000	56,280000
2,852389	-0,624953	44,154	-0,056924	22,460000	56,280000
2,852452	-0,253486	44,509	-0,056769	22,460000	56,280000
2,852435	-0,134336	44,863	-0,056719	22,460000	56,280000
2,852393	-0,348105	45,219	-0,056809	22,460000	56,280000
2,852436	-0,117982	45,571	-0,056712	22,460000	56,295000
2,852391	-0,189238	45,925	-0,056742	22,460000	56,295000
2,852410	-0,102796	46,276	-0,056706	22,460000	56,295000
2,852458	-0,323574	46,628	-0,056798	22,460000	56,295000
2,852428	-0,308388	46,979	-0,056792	22,460000	56,295000
2,852447	-0,213769	47,337	-0,056752	22,460000	56,295000
2,852423	-0,331751	47,701	-0,056802	22,460000	56,295000
2,852468	-0,331751	48,058	-0,056802	22,460000	56,295000
2,852398	-0,054902	48,411	-0,056686	22,460000	56,295000
2,852449	-0,356282	48,769	-0,056812	22,460000	56,295000
2,852454	-0,268672	49,121	-0,056775	22,460000	56,295000
2,852400	0,102796	49,475	-0,056620	22,460000	56,295000
2,852401	-0,331751	49,828	-0,056802	22,460000	56,295000
2,852429	-0,467255	50,182	-0,056858	22,460000	56,295000
2,852389	0,000000	50,541	-0,056663	22,460000	56,295000
2,852439	-0,339928	50,896	-0,056805	22,460000	56,295000
2,851897	-1,107394	51,233	-0,057126	22,460000	56,295000
2,851921	-0,799006	51,595	-0,056997	22,460000	56,295000
2,851909	-0,735926	51,947	-0,056971	22,460000	56,295000
2,851910	-0,641307	52,297	-0,056931	22,460000	56,295000
2,851951	-0,782652	52,648	-0,056990	22,460000	56,295000
2,851890	-0,870262	53,006	-0,057027	22,460000	56,295000
2,851890	-0,909979	53,362	-0,057043	22,460000	56,295000
2,851938	-0,933341	53,714	-0,057053	22,460000	56,295000
2,851858	-0,679856	54,068	-0,056947	22,460000	56,295000
2,851910	-0,696210	54,419	-0,056954	22,460000	56,295000
2,851878	-0,704387	54,773	-0,056958	22,460000	56,295000
2,851913	-1,138934	55,126	-0,057139	22,460000	56,295000
2,851929	-0,616776	55,478	-0,056921	22,460000	56,295000
2,851963	-0,568883	55,828	-0,056901	22,460000	56,295000
2,851958	-0,815360	56,178	-0,057004	22,460000	56,295000
2,851903	-0,260495	56,528	-0,056772	22,460000	56,295000
2,851872	-0,973058	56,884	-0,057070	22,460000	56,295000
2,851864	-0,371468	57,245	-0,056818	22,460000	56,295000
2,851943	-0,735926	57,601	-0,056971	22,460000	56,295000
2,851853	-0,846899	57,953	-0,057017	22,460000	56,295000
2,851913	-0,719572	58,306	-0,056964	22,460000	56,295000
2,851923	-0,735926	58,667	-0,056971	22,460000	56,295000
2,851915	-0,719572	59,019	-0,056964	22,460000	56,295000
2,851913	-0,949695	59,372	-0,057060	22,460000	56,295000
2,851970	-1,138934	59,724	-0,057139	22,460000	56,280000
2,851898	-0,981235	60,076	-0,057073	22,460000	56,280000
2,851945	-0,933341	60,428	-0,057053	22,460000	56,280000
2,851946	-0,846899	60,780	-0,057017	22,460000	56,280000
2,851911	-0,672847	61,132	-0,056944	22,460000	56,280000
2,851909	-7,952676	61,274	-0,056481	22,460000	56,310000