File: Nanoindentation Datenauswertung/data/MEMS Resolution Test/MEMS step test,1nm,10Hz-1
Quasi static measurement routine
Tip parameters (shape,radius, material...)
17.08.2022

Piezo position[nm]	MEMS displ.[nm]	Time[ms]	Cap [pf]	Temp [°C]	Rh [%]
eoh
2,784103	0,000000	0,171	-0,066440	22,460000	56,865000
2,785030	-0,744103	2,574	-0,066751	22,450000	56,865000
2,784990	-0,419361	3,093	-0,066616	22,450000	56,865000
2,784999	-0,220778	3,595	-0,066533	22,450000	56,865000
2,785009	-0,641307	4,097	-0,066708	22,460000	56,865000
2,785029	-0,609767	4,602	-0,066695	22,460000	56,865000
2,785119	-0,577060	5,105	-0,066682	22,460000	56,865000
2,785063	-0,513980	5,608	-0,066655	22,460000	56,865000
2,785041	-0,505803	6,111	-0,066652	22,460000	56,865000
2,785041	-0,553697	6,612	-0,066672	22,460000	56,865000
2,784978	-0,577060	7,115	-0,066682	22,460000	56,865000
2,785047	-0,395998	7,642	-0,066606	22,460000	56,865000
2,785064	-0,593414	8,144	-0,066688	22,470000	56,850000
2,785010	-0,790829	8,645	-0,066771	22,470000	56,850000
2,785022	-0,885448	9,147	-0,066811	22,470000	56,850000
2,785075	-0,601591	9,651	-0,066692	22,470000	56,850000
2,785025	-0,855076	10,153	-0,066798	22,470000	56,850000
2,785065	-0,688033	10,666	-0,066728	22,470000	56,850000
2,785088	-0,656493	11,168	-0,066715	22,470000	56,850000
2,785058	-0,744103	11,669	-0,066751	22,470000	56,850000
2,785059	-0,885448	12,175	-0,066811	22,460000	56,865000
2,784105	-1,677445	13,617	-0,067142	22,460000	56,865000
2,784021	-1,937939	14,122	-0,067250	22,460000	56,840000
2,784057	-2,057089	14,623	-0,067300	22,460000	56,840000
2,784073	-2,476450	15,126	-0,067476	22,460000	56,840000
2,784048	-1,700807	15,626	-0,067151	22,460000	56,840000
2,784025	-1,788418	16,128	-0,067188	22,460000	56,840000
2,784026	-1,891214	16,630	-0,067231	22,460000	56,840000
2,784028	-2,199602	17,135	-0,067360	22,460000	56,840000
2,784058	-2,104983	17,636	-0,067320	22,460000	56,840000
2,784032	-2,183248	18,139	-0,067353	22,460000	56,825000
2,784074	-2,041903	18,644	-0,067294	22,460000	56,825000
2,784084	-2,397017	19,150	-0,067442	22,460000	56,825000
2,784081	-2,516167	19,653	-0,067492	22,460000	56,825000
2,784054	-2,183248	20,156	-0,067353	22,450000	56,850000
2,784037	-2,405194	20,657	-0,067446	22,450000	56,850000
2,784073	-2,499813	21,158	-0,067485	22,450000	56,850000
2,784029	-2,136523	21,659	-0,067333	22,450000	56,850000
2,784069	-2,461265	22,161	-0,067469	22,460000	56,865000
2,784058	-2,199602	22,665	-0,067360	22,460000	56,865000
2,784046	-2,381831	23,166	-0,067436	22,460000	56,865000
2,785084	-1,518578	24,601	-0,067075	22,450000	56,865000
2,785028	-1,004598	25,103	-0,066860	22,450000	56,865000
2,785055	-1,645905	25,609	-0,067128	22,450000	56,865000
2,785035	-0,949695	26,111	-0,066837	22,450000	56,865000
2,785038	-1,344526	26,614	-0,067002	22,450000	56,865000
2,785007	-1,226544	27,115	-0,066953	22,450000	56,865000
2,785009	-1,654082	27,621	-0,067132	22,450000	56,865000
2,785025	-1,654082	28,125	-0,067132	22,460000	56,850000
2,785059	-1,740524	28,627	-0,067168	22,460000	56,850000
2,785022	-1,423959	29,128	-0,067036	22,460000	56,850000
2,785031	-1,811780	29,630	-0,067198	22,460000	56,850000
2,785039	-1,795427	30,133	-0,067191	22,460000	56,850000
2,785114	-1,859674	30,634	-0,067218	22,460000	56,850000
2,785059	-1,748701	31,134	-0,067171	22,460000	56,850000
2,785027	-2,176239	31,637	-0,067350	22,460000	56,850000
2,785023	-1,685622	32,141	-0,067145	22,450000	56,850000
2,785038	-1,614365	32,642	-0,067115	22,450000	56,850000
2,785058	-1,534932	33,144	-0,067082	22,450000	56,850000
2,785007	-1,946116	33,647	-0,067254	22,450000	56,850000
2,785020	-1,693799	34,149	-0,067148	22,460000	56,825000
2,784050	-2,943705	35,588	-0,067671	22,460000	56,825000
2,784028	-2,532521	36,093	-0,067499	22,460000	56,825000
2,784009	-3,061687	36,599	-0,067720	22,460000	56,825000
2,784048	-2,635317	37,104	-0,067542	22,460000	56,825000
2,784057	-3,061687	37,606	-0,067720	22,460000	56,825000
2,784040	-2,880626	38,108	-0,067645	22,460000	56,825000
2,784069	-2,690219	38,619	-0,067565	22,460000	56,825000
2,784112	-3,054678	39,124	-0,067717	22,460000	56,825000
2,784060	-2,753299	39,627	-0,067591	22,460000	56,825000
2,784078	-2,840909	40,130	-0,067628	22,460000	56,865000
2,784073	-3,172660	40,639	-0,067767	22,460000	56,865000
2,784093	-2,975245	41,143	-0,067684	22,460000	56,865000
2,784054	-2,793015	41,644	-0,067608	22,460000	56,865000
2,784102	-3,078041	42,147	-0,067727	22,460000	56,865000
2,784036	-2,991599	42,649	-0,067691	22,460000	56,865000
2,784115	-3,505579	43,156	-0,067906	22,460000	56,865000
2,784078	-2,935528	43,656	-0,067667	22,460000	56,865000
2,784008	-2,943705	44,162	-0,067671	22,460000	56,850000
2,784037	-3,046501	44,664	-0,067714	22,460000	56,850000
2,784095	-3,086218	45,168	-0,067730	22,460000	56,850000
2,785059	-2,199602	46,604	-0,067360	22,460000	56,850000
2,785022	-2,088629	47,105	-0,067313	22,460000	56,850000
2,785085	-2,048912	47,609	-0,067297	22,460000	56,850000
2,784999	-2,048912	48,111	-0,067297	22,450000	56,840000
2,785012	-2,310575	48,613	-0,067406	22,450000	56,840000
2,785069	-2,199602	49,121	-0,067360	22,450000	56,840000
2,785005	-2,499813	49,625	-0,067485	22,450000	56,840000
2,785071	-2,279035	50,132	-0,067393	22,460000	56,880000
2,785071	-2,444911	50,636	-0,067462	22,460000	56,880000
2,784995	-2,421548	51,148	-0,067453	22,460000	56,880000
2,785087	-2,682042	51,652	-0,067562	22,460000	56,880000
2,785066	-2,176239	52,156	-0,067350	22,470000	56,850000
2,785016	-2,690219	52,658	-0,067565	22,470000	56,850000
2,785059	-2,342115	53,173	-0,067419	22,470000	56,850000
2,785067	-2,342115	53,675	-0,067419	22,470000	56,850000
2,785074	-2,333938	54,177	-0,067416	22,460000	56,850000
2,785025	-2,808201	54,686	-0,067614	22,460000	56,850000
2,785038	-2,610786	55,194	-0,067532	22,460000	56,850000
2,785053	-2,453088	55,697	-0,067466	22,460000	56,850000
2,785019	-2,507990	56,206	-0,067489	22,460000	56,850000
2,785042	-2,247496	56,709	-0,067380	22,460000	56,850000
2,784012	-3,354889	58,168	-0,067843	22,460000	56,850000
2,784051	-3,520765	58,672	-0,067912	22,460000	56,850000
2,784059	-3,639915	59,182	-0,067962	22,460000	56,850000
2,784043	-3,545296	59,686	-0,067922	22,460000	56,850000
2,783962	-3,220554	60,188	-0,067787	22,450000	56,840000
2,784053	-3,655101	60,690	-0,067968	22,450000	56,840000
2,784020	-3,639915	61,205	-0,067962	22,450000	56,840000
2,784011	-3,552305	61,712	-0,067925	22,450000	56,840000
2,784086	-3,528942	62,213	-0,067916	22,460000	56,880000
2,784059	-3,655101	62,718	-0,067968	22,460000	56,880000
2,784037	-3,378252	63,219	-0,067853	22,460000	56,880000
2,784101	-3,616552	63,722	-0,067952	22,460000	56,880000
2,784063	-3,671454	64,225	-0,067975	22,460000	56,880000
2,784088	-3,694817	64,725	-0,067985	22,460000	56,880000
2,784029	-3,671454	65,229	-0,067975	22,460000	56,880000
2,784074	-3,608375	65,737	-0,067949	22,460000	56,880000
2,784093	-3,600198	66,248	-0,067945	22,460000	56,825000
2,784049	-3,877047	66,763	-0,068061	22,460000	56,825000
2,784058	-3,750888	67,266	-0,068008	22,460000	56,825000
2,784104	-3,979843	67,767	-0,068104	22,460000	56,825000
2,785018	-2,666857	69,221	-0,067555	22,470000	56,795000
2,785069	-2,713582	69,723	-0,067575	22,470000	56,795000
2,785036	-3,235739	70,243	-0,067793	22,460000	56,825000
2,785091	-3,030147	70,765	-0,067707	22,460000	56,825000
2,785002	-3,054678	71,266	-0,067717	22,460000	56,825000
2,785039	-2,777830	71,773	-0,067602	22,460000	56,825000
2,785037	-2,864272	72,274	-0,067638	22,460000	56,825000
2,785027	-2,555884	72,782	-0,067509	22,460000	56,825000
2,785075	-2,991599	73,298	-0,067691	22,460000	56,825000
2,785015	-3,078041	73,808	-0,067727	22,460000	56,825000
2,785048	-3,054678	74,316	-0,067717	22,460000	56,840000
2,785041	-2,698396	74,823	-0,067568	22,460000	56,840000
2,785056	-3,109581	75,332	-0,067740	22,460000	56,840000
2,785046	-3,212377	75,836	-0,067783	22,460000	56,840000
2,785016	-2,935528	76,368	-0,067667	22,460000	56,840000
2,785009	-3,252093	76,871	-0,067800	22,460000	56,840000
2,785027	-2,958891	77,380	-0,067677	22,460000	56,840000
2,785036	-3,252093	77,914	-0,067800	22,460000	56,840000
2,785024	-2,824555	78,424	-0,067621	22,470000	56,840000
2,785011	-3,101404	78,932	-0,067737	22,470000	56,840000
2,784016	-4,090816	80,401	-0,068150	22,460000	56,810000
2,784037	-4,082639	80,904	-0,068147	22,460000	56,810000
2,784068	-3,805790	81,415	-0,068031	22,460000	56,810000
2,784036	-4,597787	81,932	-0,068362	22,460000	56,810000
2,784015	-4,098993	82,432	-0,068154	22,440000	56,835000
2,784058	-3,996197	82,953	-0,068111	22,440000	56,835000
2,784052	-4,384018	83,466	-0,068273	22,440000	56,835000
2,784055	-4,826742	83,976	-0,068458	22,440000	56,835000
2,784003	-4,035913	84,478	-0,068127	22,460000	56,840000
2,784060	-4,233328	84,980	-0,068210	22,460000	56,840000
2,784031	-4,312762	85,488	-0,068243	22,460000	56,840000
2,784042	-4,216974	85,993	-0,068203	22,450000	56,825000
2,784035	-4,098993	86,506	-0,068154	22,450000	56,825000
2,784068	-4,011382	87,014	-0,068117	22,450000	56,825000
2,784068	-4,288231	87,538	-0,068233	22,450000	56,825000
2,784040	-4,011382	88,043	-0,068117	22,450000	56,840000
2,784095	-4,216974	88,564	-0,068203	22,450000	56,840000
2,784036	-4,067453	89,073	-0,068141	22,450000	56,840000
2,784076	-3,971666	89,591	-0,068101	22,450000	56,840000
2,784094	-4,264868	90,092	-0,068223	22,450000	56,840000
2,784029	-4,067453	90,352	-0,068141	22,450000	56,840000