File: Nanoindentation Datenauswertung/data/MEMS Resolution Test/MEMS step test,1nm,10Hz-4
Quasi static measurement routine
Tip parameters (shape,radius, material...)
17.08.2022

Piezo position[nm]	MEMS displ.[nm]	Time[ms]	Cap [pf]	Temp [°C]	Rh [%]
eoh
2,783982	0,221946	0,186	-0,077706	22,470000	56,525000
2,784954	1,020952	2,537	-0,077372	22,460000	56,550000
2,784971	1,416950	2,987	-0,077207	22,460000	56,510000
2,784975	1,037306	3,440	-0,077365	22,460000	56,510000
2,784995	1,037306	3,893	-0,077365	22,460000	56,510000
2,784942	1,329340	4,347	-0,077243	22,460000	56,510000
2,784923	1,171641	4,797	-0,077309	22,460000	56,510000
2,784937	1,385410	5,247	-0,077220	22,460000	56,510000
2,784951	0,989412	5,698	-0,077385	22,460000	56,510000
2,784936	1,297800	6,150	-0,077256	22,460000	56,510000
2,784930	1,163464	6,601	-0,077313	22,460000	56,510000
2,784929	1,123748	7,053	-0,077329	22,460000	56,525000
2,784959	1,029129	7,505	-0,077369	22,460000	56,525000
2,784944	1,020952	7,959	-0,077372	22,460000	56,525000
2,784927	0,933341	8,411	-0,077409	22,460000	56,525000
2,784922	0,863253	8,864	-0,077438	22,460000	56,525000
2,784966	1,012775	9,319	-0,077375	22,460000	56,525000
2,784945	0,823537	9,771	-0,077455	22,460000	56,525000
2,784903	0,617944	10,226	-0,077541	22,460000	56,525000
2,784962	0,482441	10,679	-0,077597	22,460000	56,525000
2,784950	0,815360	11,130	-0,077458	22,460000	56,550000
2,784989	0,657661	11,580	-0,077524	22,460000	56,550000
2,785013	0,981235	12,033	-0,077389	22,460000	56,550000
2,783925	-0,117982	13,425	-0,077848	22,460000	56,550000
2,783936	-0,220778	13,879	-0,077891	22,460000	56,550000
2,783980	-0,165875	14,330	-0,077868	22,460000	56,550000
2,783954	-0,197415	14,790	-0,077881	22,460000	56,550000
2,783964	-0,300211	15,244	-0,077924	22,460000	56,525000
2,783942	0,008177	15,700	-0,077795	22,460000	56,525000
2,783962	0,119150	16,150	-0,077749	22,460000	56,525000
2,783987	-0,165875	16,602	-0,077868	22,460000	56,525000
2,783936	0,435715	17,053	-0,077617	22,460000	56,540000
2,783982	-0,142513	17,505	-0,077858	22,460000	56,540000
2,783991	0,054902	17,958	-0,077776	22,460000	56,540000
2,783970	-0,324742	18,410	-0,077935	22,460000	56,540000
2,783923	-0,134336	18,861	-0,077855	22,460000	56,540000
2,783918	0,063079	19,314	-0,077772	22,460000	56,540000
2,783883	-0,015186	19,775	-0,077805	22,460000	56,540000
2,783915	-0,316565	20,230	-0,077931	22,460000	56,540000
2,783957	0,016354	20,687	-0,077792	22,460000	56,540000
2,783928	-0,253486	21,144	-0,077905	22,460000	56,540000
2,783943	-0,157698	21,598	-0,077865	22,460000	56,540000
2,783965	0,102796	22,050	-0,077756	22,460000	56,540000
2,783994	-0,102796	22,501	-0,077842	22,460000	56,540000
2,784022	-0,117982	22,953	-0,077848	22,460000	56,540000
2,784919	0,008177	23,388	-0,077795	22,460000	56,540000
2,784961	1,012775	24,790	-0,077375	22,460000	56,540000
2,784946	0,949695	25,242	-0,077402	22,460000	56,540000
2,784973	0,870262	25,704	-0,077435	22,460000	56,540000
2,784965	0,918156	26,158	-0,077415	22,460000	56,540000
2,784954	0,641307	26,609	-0,077531	22,460000	56,540000
2,784958	0,744103	27,060	-0,077488	22,460000	56,540000
2,784937	0,855076	27,512	-0,077441	22,460000	56,540000
2,784995	0,791997	27,966	-0,077468	22,460000	56,540000
2,784961	0,744103	28,419	-0,077488	22,460000	56,540000
2,784936	0,783820	28,879	-0,077471	22,460000	56,540000
2,784985	0,901802	29,343	-0,077422	22,460000	56,540000
2,784935	0,641307	29,804	-0,077531	22,460000	56,540000
2,784961	0,395998	30,256	-0,077633	22,460000	56,540000
2,784932	0,530334	30,710	-0,077577	22,460000	56,540000
2,784936	0,412352	31,162	-0,077626	22,460000	56,550000
2,784980	0,332919	31,614	-0,077660	22,460000	56,550000
2,784966	0,593414	32,068	-0,077551	22,460000	56,550000
2,785000	0,578228	32,529	-0,077557	22,460000	56,550000
2,784981	0,744103	32,995	-0,077488	22,450000	56,510000
2,784952	0,696210	33,456	-0,077508	22,450000	56,510000
2,784957	1,115571	33,909	-0,077333	22,450000	56,510000
2,784932	0,522157	34,362	-0,077581	22,450000	56,510000
2,783933	-0,316565	35,765	-0,077931	22,470000	56,525000
2,783952	-0,316565	36,218	-0,077931	22,470000	56,525000
2,783974	-0,063079	36,669	-0,077825	22,470000	56,525000
2,783964	-0,071256	37,120	-0,077829	22,470000	56,525000
2,783954	-0,023363	37,570	-0,077809	22,470000	56,525000
2,783954	-0,046725	38,034	-0,077818	22,470000	56,525000
2,783973	0,031540	38,494	-0,077786	22,470000	56,525000
2,784028	-0,110973	38,966	-0,077845	22,470000	56,525000
2,784003	-0,181061	39,418	-0,077875	22,470000	56,525000
2,783964	-0,324742	39,869	-0,077935	22,470000	56,525000
2,783988	0,047894	40,335	-0,077779	22,470000	56,525000
2,783945	0,182229	40,798	-0,077723	22,470000	56,525000
2,783905	-0,150690	41,249	-0,077862	22,460000	56,540000
2,783973	0,000000	41,699	-0,077799	22,460000	56,540000
2,783938	-0,181061	42,168	-0,077875	22,460000	56,540000
2,783944	-0,419361	42,622	-0,077974	22,460000	56,540000
2,783968	-0,181061	43,075	-0,077875	22,460000	56,525000
2,783940	-0,253486	43,527	-0,077905	22,460000	56,525000
2,783997	-0,086442	43,982	-0,077835	22,460000	56,525000
2,783963	0,094619	44,447	-0,077759	22,460000	56,525000
2,783936	-0,031540	44,909	-0,077812	22,460000	56,525000
2,783977	0,158867	45,369	-0,077732	22,460000	56,525000
2,784941	0,799006	46,765	-0,077465	22,460000	56,525000
2,785026	0,767466	47,227	-0,077478	22,460000	56,525000
2,784962	0,553697	47,695	-0,077567	22,460000	56,525000
2,784940	0,886616	48,148	-0,077428	22,460000	56,525000
2,784957	0,815360	48,618	-0,077458	22,460000	56,525000
2,785006	0,807183	49,070	-0,077461	22,450000	56,525000
2,784989	0,617944	49,521	-0,077541	22,450000	56,525000
2,784948	0,744103	49,977	-0,077488	22,450000	56,525000
2,784967	0,815360	50,428	-0,077458	22,450000	56,525000
2,784934	0,498794	50,878	-0,077590	22,450000	56,525000
2,784944	0,609767	51,363	-0,077544	22,460000	56,510000
2,784899	0,918156	51,823	-0,077415	22,460000	56,510000
2,784990	0,681024	52,277	-0,077514	22,460000	56,510000
2,784988	0,601591	52,728	-0,077547	22,460000	56,510000
2,784908	0,823537	53,183	-0,077455	22,460000	56,510000
2,785006	0,926333	53,636	-0,077412	22,460000	56,510000
2,784934	0,886616	54,099	-0,077428	22,460000	56,510000
2,784949	0,799006	54,570	-0,077465	22,460000	56,510000
2,784966	1,012775	55,023	-0,077375	22,460000	56,540000
2,784923	0,981235	55,477	-0,077389	22,460000	56,540000
2,784979	0,893625	55,943	-0,077425	22,460000	56,540000
2,784955	0,735926	56,395	-0,077491	22,460000	56,540000
2,784954	0,609767	56,867	-0,077544	22,460000	56,540000
2,783971	-0,228955	58,276	-0,077895	22,460000	56,510000
2,783948	-0,174052	58,736	-0,077872	22,460000	56,510000
2,783924	0,008177	59,191	-0,077795	22,460000	56,525000
2,784000	-0,434547	59,661	-0,077980	22,460000	56,525000
2,783972	-0,339928	60,136	-0,077941	22,460000	56,525000
2,783966	-0,545520	60,628	-0,078027	22,460000	56,525000
2,783968	-0,394830	61,083	-0,077964	22,460000	56,525000
2,783947	-0,371468	61,538	-0,077954	22,460000	56,525000
2,784045	0,198583	62,007	-0,077716	22,460000	56,525000
2,783970	-0,260495	62,478	-0,077908	22,460000	56,525000
2,783957	-0,268672	62,929	-0,077911	22,460000	56,525000
2,783955	-0,165875	63,384	-0,077868	22,460000	56,510000
2,783952	-0,371468	63,837	-0,077954	22,460000	56,510000
2,783975	-0,237132	64,306	-0,077898	22,460000	56,510000
2,784008	-0,466087	64,780	-0,077994	22,460000	56,510000
2,784019	-0,316565	65,240	-0,077931	22,460000	56,510000
2,783938	-0,593414	65,691	-0,078047	22,460000	56,510000
2,783932	-0,268672	66,144	-0,077911	22,460000	56,510000
2,783960	-0,213769	66,636	-0,077888	22,460000	56,510000
2,783937	-0,553697	67,112	-0,078030	22,460000	56,525000
2,783917	-0,490618	67,582	-0,078004	22,460000	56,525000
2,783912	-0,482441	68,039	-0,078000	22,460000	56,525000
2,785028	0,253486	69,430	-0,077693	22,460000	56,540000
2,784927	0,649484	69,896	-0,077527	22,460000	56,540000
2,784947	0,372636	70,348	-0,077643	22,460000	56,540000
2,784938	0,230123	70,819	-0,077703	22,460000	56,540000
2,784993	0,578228	71,289	-0,077557	22,460000	56,525000
2,785009	0,443892	71,739	-0,077613	22,460000	56,525000
2,784981	0,387821	72,198	-0,077637	22,460000	56,525000
2,785053	0,427538	72,650	-0,077620	22,460000	56,525000
2,784951	0,435715	73,128	-0,077617	22,460000	56,525000
2,784918	0,364459	73,597	-0,077646	22,460000	56,525000
2,785008	0,213769	74,051	-0,077709	22,460000	56,525000
2,784987	0,546688	74,527	-0,077570	22,460000	56,525000
2,784912	0,364459	74,994	-0,077646	22,460000	56,510000
2,784942	0,633130	75,467	-0,077534	22,460000	56,510000
2,784943	0,459078	75,946	-0,077607	22,460000	56,510000
2,784971	0,230123	76,401	-0,077703	22,460000	56,510000
2,784923	0,704387	76,857	-0,077504	22,460000	56,510000
2,784959	0,546688	77,337	-0,077570	22,460000	56,525000
2,784920	0,459078	77,804	-0,077607	22,460000	56,525000
2,784939	0,467255	78,280	-0,077604	22,460000	56,525000
2,784955	0,387821	78,748	-0,077637	22,460000	56,525000
2,784945	0,482441	79,226	-0,077597	22,470000	56,525000
2,784938	0,585237	79,681	-0,077554	22,470000	56,525000
2,783936	-0,570051	81,108	-0,078037	22,460000	56,525000
2,783976	-0,459078	81,590	-0,077991	22,460000	56,525000
2,783990	-0,379645	82,061	-0,077958	22,460000	56,525000
2,783993	-0,308388	82,537	-0,077928	22,460000	56,525000
2,783973	-0,426370	83,031	-0,077977	22,460000	56,525000
2,783955	-0,394830	83,503	-0,077964	22,460000	56,525000
2,783922	-0,545520	83,987	-0,078027	22,460000	56,525000
2,783925	-0,213769	84,457	-0,077888	22,460000	56,525000
2,783995	-0,577060	84,938	-0,078040	22,460000	56,525000
2,783958	-0,245309	85,401	-0,077901	22,460000	56,525000
2,783986	-0,411184	85,857	-0,077971	22,460000	56,525000
2,783993	-0,505803	86,319	-0,078010	22,460000	56,525000
2,784034	-0,237132	86,770	-0,077898	22,460000	56,525000
2,783911	-0,656493	87,238	-0,078073	22,460000	56,510000
2,783966	-0,593414	87,710	-0,078047	22,460000	56,510000
2,783959	-0,664670	88,205	-0,078077	22,460000	56,510000
2,783993	-0,442724	88,665	-0,077984	22,460000	56,510000
2,783989	-0,727749	89,146	-0,078103	22,460000	56,510000
2,783951	-0,845731	89,613	-0,078152	22,460000	56,510000
2,783961	-0,648316	90,088	-0,078070	22,460000	56,510000
2,784004	-1,115571	90,568	-0,078265	22,460000	56,510000
2,783898	-0,459078	91,069	-0,077991	22,460000	56,525000
2,783940	-0,522157	91,269	-0,078017	22,460000	56,525000