File: Nanoindentation Datenauswertung/data/MEMS Resolution Test/MEMS step test,0,5nm,10Hz-5
Quasi static measurement routine
Tip parameters (shape,radius, material...)
17.08.2022

Piezo position[nm]	MEMS displ.[nm]	Time[ms]	Cap [pf]	Temp [°C]	Rh [%]
eoh
2,851891	0,127327	0,216	-0,058178	22,460000	56,240000
2,852350	0,268672	0,568	-0,058119	22,460000	56,225000
2,852388	0,412352	0,920	-0,058059	22,460000	56,225000
2,852367	0,039717	1,273	-0,058214	22,460000	56,225000
2,852397	0,308388	1,624	-0,058102	22,460000	56,225000
2,852367	-0,126159	1,976	-0,058284	22,460000	56,225000
2,852354	0,174052	2,326	-0,058158	22,460000	56,225000
2,852376	0,167044	2,679	-0,058161	22,450000	56,240000
2,852431	0,150690	3,031	-0,058168	22,450000	56,240000
2,852410	0,167044	3,382	-0,058161	22,450000	56,240000
2,852382	0,364459	3,733	-0,058079	22,450000	56,240000
2,852323	0,442724	4,084	-0,058046	22,450000	56,240000
2,852363	0,063079	4,434	-0,058205	22,460000	56,255000
2,852438	0,301379	4,786	-0,058105	22,460000	56,255000
2,852365	0,174052	5,138	-0,058158	22,460000	56,255000
2,852367	0,150690	5,488	-0,058168	22,460000	56,255000
2,852389	0,387821	5,842	-0,058069	22,460000	56,255000
2,852325	0,198583	6,192	-0,058148	22,460000	56,255000
2,852350	0,047894	6,544	-0,058211	22,460000	56,255000
2,852402	0,459078	6,895	-0,058039	22,460000	56,255000
2,852361	0,276848	7,245	-0,058115	22,460000	56,255000
2,852344	0,467255	7,595	-0,058036	22,460000	56,255000
2,852318	0,387821	7,946	-0,058069	22,460000	56,255000
2,852328	-0,150690	8,297	-0,058294	22,460000	56,255000
2,852363	-0,007009	8,649	-0,058234	22,460000	56,215000
2,852352	0,087610	9,002	-0,058194	22,460000	56,215000
2,852390	0,008177	9,353	-0,058228	22,460000	56,215000
2,852353	-0,054902	9,705	-0,058254	22,460000	56,215000
2,852378	-0,134336	10,056	-0,058287	22,460000	56,215000
2,851866	-0,411184	10,401	-0,058403	22,460000	56,240000
2,851862	-0,513980	10,753	-0,058446	22,460000	56,240000
2,851921	-0,403007	11,104	-0,058399	22,460000	56,240000
2,851854	-0,228955	11,456	-0,058327	22,460000	56,240000
2,851843	-0,537343	11,807	-0,058456	22,460000	56,240000
2,851863	-0,245309	12,159	-0,058333	22,460000	56,240000
2,851890	-0,616776	12,511	-0,058489	22,460000	56,240000
2,851895	-0,331751	12,862	-0,058370	22,460000	56,240000
2,851877	-0,126159	13,217	-0,058284	22,460000	56,240000
2,851813	-0,616776	13,568	-0,058489	22,460000	56,240000
2,851836	-0,205592	13,919	-0,058317	22,460000	56,240000
2,851868	-0,212601	14,272	-0,058320	22,460000	56,240000
2,851815	-0,150690	14,625	-0,058294	22,460000	56,255000
2,851881	-0,434547	14,977	-0,058413	22,460000	56,255000
2,851833	-0,379645	15,328	-0,058390	22,460000	56,255000
2,851885	-0,561874	15,681	-0,058466	22,460000	56,255000
2,851917	-0,530334	16,033	-0,058453	22,460000	56,255000
2,851831	-0,268672	16,386	-0,058343	22,450000	56,255000
2,851848	-0,189238	16,737	-0,058310	22,450000	56,255000
2,851890	-0,285025	17,091	-0,058350	22,450000	56,255000
2,851822	-0,220778	17,443	-0,058323	22,450000	56,255000
2,851912	-0,624953	17,796	-0,058492	22,450000	56,255000
2,851859	-0,474264	18,149	-0,058429	22,450000	56,255000
2,851885	-0,799006	18,502	-0,058565	22,450000	56,255000
2,851833	-0,593414	18,853	-0,058479	22,450000	56,255000
2,851889	-0,830545	19,205	-0,058578	22,450000	56,255000
2,851878	-0,830545	19,623	-0,058578	22,450000	56,255000
2,851837	-0,490618	19,975	-0,058436	22,450000	56,255000
2,851859	-0,570051	20,327	-0,058469	22,450000	56,255000
2,852357	-0,237132	20,678	-0,058330	22,460000	56,255000
2,852340	-0,182229	21,029	-0,058307	22,460000	56,255000
2,852370	0,213769	21,384	-0,058142	22,460000	56,255000
2,852317	-0,165875	21,734	-0,058300	22,460000	56,255000
2,852334	-0,285025	22,092	-0,058350	22,460000	56,255000
2,852388	0,167044	22,444	-0,058161	22,460000	56,255000
2,852334	0,008177	22,794	-0,058228	22,460000	56,255000
2,852392	-0,285025	23,146	-0,058350	22,460000	56,255000
2,852297	-0,395998	23,497	-0,058396	22,460000	56,255000
2,852366	-0,150690	23,850	-0,058294	22,460000	56,255000
2,852335	-0,063079	24,201	-0,058257	22,460000	56,255000
2,852323	-0,205592	24,562	-0,058317	22,460000	56,255000
2,852346	0,031540	24,921	-0,058218	22,460000	56,255000
2,852375	0,063079	25,290	-0,058205	22,460000	56,255000
2,852354	-0,316565	25,642	-0,058363	22,460000	56,255000
2,852382	-0,054902	25,994	-0,058254	22,460000	56,255000
2,852321	-0,189238	26,345	-0,058310	22,460000	56,255000
2,852329	-0,497626	26,696	-0,058439	22,460000	56,240000
2,852367	-0,363291	27,049	-0,058383	22,460000	56,240000
2,852389	0,387821	27,401	-0,058069	22,460000	56,240000
2,852332	-0,252318	27,752	-0,058336	22,460000	56,240000
2,852376	-0,174052	28,103	-0,058304	22,460000	56,240000
2,852376	-0,308388	28,454	-0,058360	22,460000	56,225000
2,852356	-0,459078	28,806	-0,058423	22,460000	56,225000
2,852398	-0,134336	29,158	-0,058287	22,460000	56,225000
2,852373	-0,015186	29,525	-0,058237	22,460000	56,225000
2,852325	-0,182229	29,875	-0,058307	22,460000	56,225000
2,852373	-0,260495	30,227	-0,058340	22,460000	56,225000
2,852341	-0,671679	30,584	-0,058512	22,460000	56,240000
2,851859	-0,735926	30,943	-0,058539	22,460000	56,240000
2,851854	-0,640139	31,296	-0,058499	22,460000	56,240000
2,851837	-0,631962	31,647	-0,058495	22,460000	56,240000
2,851932	-0,537343	32,001	-0,058456	22,460000	56,240000
2,851840	-0,671679	32,352	-0,058512	22,460000	56,240000
2,851836	-1,075854	32,704	-0,058681	22,460000	56,240000
2,851905	-0,537343	33,058	-0,058456	22,460000	56,240000
2,851858	-0,696210	33,411	-0,058522	22,460000	56,240000
2,851855	-0,023363	33,762	-0,058241	22,460000	56,240000
2,851891	-0,570051	34,126	-0,058469	22,460000	56,240000
2,851908	-0,893625	34,484	-0,058604	22,450000	56,215000
2,851866	-0,941518	34,855	-0,058625	22,450000	56,215000
2,851820	-1,344526	35,207	-0,058793	22,450000	56,215000
2,851863	-0,688033	35,559	-0,058519	22,450000	56,215000
2,851852	-0,916988	35,910	-0,058614	22,450000	56,215000
2,851838	-1,202013	36,261	-0,058733	22,450000	56,215000
2,851874	-0,822368	36,612	-0,058575	22,450000	56,215000
2,851852	-0,450901	36,965	-0,058419	22,450000	56,215000
2,851839	-0,870262	37,315	-0,058595	22,450000	56,215000
2,851836	-0,735926	37,668	-0,058539	22,450000	56,215000
2,851805	-0,648316	38,019	-0,058502	22,450000	56,215000
2,851863	-0,807183	38,373	-0,058568	22,450000	56,240000
2,851800	-0,656493	38,724	-0,058505	22,450000	56,240000
2,851887	-0,459078	39,076	-0,058423	22,450000	56,240000
2,851841	-0,838722	39,429	-0,058582	22,450000	56,240000
2,851840	-0,466087	39,782	-0,058426	22,450000	56,240000
2,851890	-0,577060	40,134	-0,058472	22,450000	56,240000
2,851833	-0,656493	40,493	-0,058505	22,450000	56,240000
2,851876	-0,648316	40,851	-0,058502	22,450000	56,240000
2,852328	-0,379645	41,185	-0,058390	22,450000	56,240000
2,852422	-0,220778	41,536	-0,058323	22,450000	56,240000
2,852367	0,039717	41,887	-0,058214	22,450000	56,240000
2,852296	-0,450901	42,245	-0,058419	22,450000	56,240000
2,852363	-0,530334	42,623	-0,058453	22,450000	56,225000
2,852351	-0,679856	42,973	-0,058515	22,450000	56,225000
2,852341	-0,189238	43,324	-0,058310	22,450000	56,225000
2,852410	-0,323574	43,683	-0,058366	22,450000	56,225000
2,852367	-0,403007	44,038	-0,058399	22,450000	56,225000
2,852365	-0,815360	44,390	-0,058572	22,460000	56,255000
2,852330	-0,601591	44,745	-0,058482	22,460000	56,255000
2,852333	-0,387821	45,096	-0,058393	22,460000	56,255000
2,852366	-0,419361	45,448	-0,058406	22,460000	56,255000
2,852353	-0,735926	45,805	-0,058539	22,460000	56,255000
2,852385	-0,348105	46,158	-0,058376	22,460000	56,255000
2,852301	-0,102796	46,508	-0,058274	22,470000	56,255000
2,852333	-0,545520	46,861	-0,058459	22,470000	56,255000
2,852303	-0,411184	47,213	-0,058403	22,470000	56,255000
2,852384	-0,545520	47,602	-0,058459	22,470000	56,255000
2,852388	-0,459078	47,954	-0,058423	22,470000	56,255000
2,852423	-0,434547	48,318	-0,058413	22,470000	56,255000
2,852376	-0,616776	48,672	-0,058489	22,460000	56,240000
2,852353	-0,570051	49,024	-0,058469	22,460000	56,240000
2,852371	-0,751112	49,375	-0,058545	22,460000	56,240000
2,852383	-0,679856	49,761	-0,058515	22,460000	56,240000
2,852369	-0,759289	50,118	-0,058548	22,460000	56,240000
2,852363	-0,648316	50,475	-0,058502	22,450000	56,265000
2,852333	-0,751112	50,825	-0,058545	22,450000	56,265000
2,852339	-0,640139	51,176	-0,058499	22,450000	56,265000
2,851854	-1,210190	51,516	-0,058737	22,450000	56,265000
2,851836	-1,044314	51,870	-0,058667	22,450000	56,265000
2,851915	-1,099217	52,224	-0,058690	22,450000	56,265000
2,851855	-1,163464	52,575	-0,058717	22,450000	56,265000
2,851839	-1,249907	52,927	-0,058753	22,450000	56,265000
2,851836	-1,020952	53,298	-0,058658	22,450000	56,265000
2,851850	-1,155287	53,659	-0,058714	22,450000	56,265000
2,851802	-1,147110	54,025	-0,058710	22,450000	56,265000
2,851885	-1,400596	54,376	-0,058816	22,460000	56,240000
2,851859	-1,138934	54,744	-0,058707	22,460000	56,240000
2,851894	-1,020952	55,106	-0,058658	22,460000	56,240000
2,851854	-0,949695	55,476	-0,058628	22,460000	56,240000
2,851829	-1,447322	55,829	-0,058836	22,460000	56,240000
2,851861	-1,266260	56,182	-0,058760	22,460000	56,240000
2,851861	-1,147110	56,548	-0,058710	22,460000	56,240000
2,851806	-1,258084	56,924	-0,058757	22,460000	56,240000
2,851811	-0,996421	57,283	-0,058647	22,460000	56,240000
2,851854	-1,384242	57,643	-0,058810	22,460000	56,240000
2,851846	-1,266260	58,007	-0,058760	22,460000	56,240000
2,851867	-1,384242	58,359	-0,058810	22,460000	56,240000
2,851757	-1,369057	58,709	-0,058803	22,460000	56,240000
2,851907	-1,241730	59,076	-0,058750	22,460000	56,240000
2,851835	-1,360880	59,435	-0,058800	22,460000	56,240000
2,851859	-1,463676	59,804	-0,058843	22,460000	56,240000
2,851855	-1,606188	60,157	-0,058902	22,460000	56,240000
2,851831	-1,455499	60,535	-0,058839	22,450000	56,240000
2,851840	-1,258084	60,886	-0,058757	22,450000	56,240000
2,851859	-0,981235	61,242	-0,058641	22,450000	56,240000
2,851868	-1,661091	61,592	-0,058925	22,450000	56,240000