File: Nanoindentation Datenauswertung/data/MEMS Resolution Test/MEMS step test,0,5nm,10Hz-1
Quasi static measurement routine
Tip parameters (shape,radius, material...)
17.08.2022

Piezo position[nm]	MEMS displ.[nm]	Time[ms]	Cap [pf]	Temp [°C]	Rh [%]
eoh
2,783999	0,079433	0,234	-0,082578	22,460000	56,335000
2,784468	0,442724	0,596	-0,082426	22,450000	56,335000
2,784434	0,561874	0,947	-0,082376	22,450000	56,335000
2,784507	0,332919	1,297	-0,082472	22,450000	56,335000
2,784516	0,142513	1,648	-0,082552	22,450000	56,335000
2,784523	0,578228	2,003	-0,082370	22,450000	56,335000
2,784470	0,158867	2,364	-0,082545	22,450000	56,335000
2,784465	0,245309	2,716	-0,082509	22,450000	56,335000
2,784505	0,404175	3,068	-0,082442	22,450000	56,335000
2,784448	0,348105	3,419	-0,082466	22,450000	56,335000
2,784449	0,459078	3,772	-0,082419	22,450000	56,335000
2,784522	0,371468	4,124	-0,082456	22,450000	56,335000
2,784454	0,276848	4,474	-0,082496	22,450000	56,335000
2,784474	0,237132	4,825	-0,082512	22,450000	56,335000
2,784498	0,213769	5,178	-0,082522	22,450000	56,335000
2,784503	0,404175	5,530	-0,082442	22,450000	56,335000
2,784514	0,609767	5,882	-0,082356	22,450000	56,335000
2,784482	0,404175	6,234	-0,082442	22,450000	56,335000
2,784489	0,371468	6,586	-0,082456	22,460000	56,350000
2,784437	0,404175	6,939	-0,082442	22,460000	56,350000
2,784517	0,688033	7,293	-0,082324	22,460000	56,350000
2,784508	0,348105	7,644	-0,082466	22,460000	56,350000
2,784515	0,293202	7,994	-0,082489	22,460000	56,350000
2,784477	0,649484	8,344	-0,082340	22,460000	56,350000
2,784475	0,071256	8,695	-0,082582	22,460000	56,350000
2,784512	0,174052	9,046	-0,082539	22,460000	56,350000
2,784445	0,094619	9,398	-0,082572	22,460000	56,350000
2,784481	-0,079433	9,749	-0,082645	22,460000	56,350000
2,784513	0,079433	10,099	-0,082578	22,460000	56,350000
2,783993	0,490618	10,438	-0,082406	22,460000	56,350000
2,783986	-0,419361	10,788	-0,082787	22,460000	56,350000
2,783960	-0,411184	11,146	-0,082783	22,460000	56,350000
2,784022	-0,411184	11,497	-0,082783	22,460000	56,350000
2,784002	-0,308388	11,849	-0,082740	22,460000	56,350000
2,784032	-0,561874	12,201	-0,082846	22,460000	56,350000
2,783984	-0,293202	12,552	-0,082734	22,460000	56,335000
2,783972	-0,285025	12,905	-0,082730	22,460000	56,335000
2,784004	-0,561874	13,258	-0,082846	22,460000	56,335000
2,783945	-0,119150	13,618	-0,082661	22,460000	56,335000
2,783960	-0,316565	13,969	-0,082744	22,460000	56,335000
2,783943	-0,688033	14,325	-0,082899	22,450000	56,350000
2,783956	-0,063079	14,676	-0,082638	22,450000	56,350000
2,783963	-0,276848	15,028	-0,082727	22,450000	56,350000
2,784003	-0,260495	15,380	-0,082720	22,450000	56,350000
2,783981	-0,150690	15,732	-0,082674	22,450000	56,350000
2,783940	-0,379645	16,084	-0,082770	22,450000	56,350000
2,783924	-0,285025	16,435	-0,082730	22,450000	56,350000
2,783983	0,142513	16,787	-0,082552	22,450000	56,350000
2,784033	-0,482441	17,140	-0,082813	22,450000	56,350000
2,783990	-0,134336	17,493	-0,082667	22,450000	56,350000
2,783939	-0,506971	17,846	-0,082823	22,450000	56,350000
2,783977	-0,379645	18,212	-0,082770	22,450000	56,350000
2,784022	-0,672847	18,564	-0,082893	22,460000	56,335000
2,784008	-0,530334	18,916	-0,082833	22,460000	56,335000
2,783964	-0,260495	19,274	-0,082720	22,460000	56,335000
2,783942	-0,228955	19,625	-0,082707	22,460000	56,335000
2,783979	-0,126159	19,976	-0,082664	22,460000	56,335000
2,784002	-0,087610	20,326	-0,082648	22,450000	56,350000
2,784477	0,221946	20,666	-0,082519	22,450000	56,350000
2,784454	0,182229	21,017	-0,082535	22,450000	56,350000
2,784442	0,182229	21,378	-0,082535	22,450000	56,350000
2,784488	0,119150	21,731	-0,082562	22,450000	56,350000
2,784513	-0,300211	22,083	-0,082737	22,450000	56,350000
2,784481	0,063079	22,434	-0,082585	22,450000	56,350000
2,784511	0,213769	22,786	-0,082522	22,450000	56,350000
2,784483	0,332919	23,137	-0,082472	22,450000	56,350000
2,784523	0,023363	23,487	-0,082602	22,450000	56,350000
2,784472	0,300211	23,840	-0,082486	22,450000	56,350000
2,784451	0,308388	24,194	-0,082482	22,450000	56,350000
2,784420	0,260495	24,547	-0,082502	22,460000	56,310000
2,784419	0,237132	24,913	-0,082512	22,460000	56,310000
2,784442	-0,063079	25,264	-0,082638	22,460000	56,310000
2,784428	-0,119150	25,619	-0,082661	22,460000	56,310000
2,784494	0,364459	25,979	-0,082459	22,460000	56,310000
2,784479	0,268672	26,334	-0,082499	22,470000	56,320000
2,784466	0,846899	26,684	-0,082257	22,470000	56,320000
2,784459	0,308388	27,037	-0,082482	22,470000	56,320000
2,784466	0,182229	27,389	-0,082535	22,470000	56,320000
2,784466	0,404175	27,740	-0,082442	22,470000	56,320000
2,784468	0,260495	28,092	-0,082502	22,470000	56,320000
2,784422	0,395998	28,443	-0,082446	22,460000	56,310000
2,784494	0,505803	28,793	-0,082400	22,460000	56,310000
2,784499	0,268672	29,145	-0,082499	22,460000	56,310000
2,784459	0,530334	29,495	-0,082390	22,460000	56,310000
2,784457	0,000000	29,847	-0,082611	22,460000	56,310000
2,784442	0,197415	30,200	-0,082529	22,460000	56,310000
2,784504	0,964881	30,555	-0,082208	22,460000	56,310000
2,784016	-0,339928	30,908	-0,082753	22,460000	56,310000
2,783967	-0,071256	31,267	-0,082641	22,460000	56,310000
2,784044	-0,182229	31,634	-0,082687	22,460000	56,310000
2,783970	-0,285025	31,992	-0,082730	22,460000	56,310000
2,783986	0,047894	32,348	-0,082591	22,460000	56,310000
2,784012	-0,023363	32,702	-0,082621	22,460000	56,310000
2,783984	-0,545520	33,053	-0,082839	22,460000	56,310000
2,783987	-0,467255	33,419	-0,082807	22,460000	56,310000
2,783962	-0,276848	33,776	-0,082727	22,460000	56,310000
2,783917	-0,190406	34,137	-0,082691	22,460000	56,310000
2,784025	-0,316565	34,487	-0,082744	22,460000	56,310000
2,783943	-0,023363	34,852	-0,082621	22,460000	56,310000
2,783943	-0,213769	35,204	-0,082701	22,460000	56,310000
2,783974	-0,150690	35,560	-0,082674	22,460000	56,310000
2,783957	-0,276848	35,922	-0,082727	22,460000	56,310000
2,783980	-0,174052	36,284	-0,082684	22,460000	56,320000
2,783985	-0,205592	36,637	-0,082697	22,460000	56,320000
2,783979	-0,071256	36,995	-0,082641	22,460000	56,320000
2,783963	-0,015186	37,348	-0,082618	22,460000	56,320000
2,783994	0,071256	37,700	-0,082582	22,460000	56,320000
2,783955	-0,395998	38,072	-0,082777	22,460000	56,320000
2,783974	0,110973	38,439	-0,082565	22,460000	56,335000
2,783928	-0,119150	38,793	-0,082661	22,460000	56,335000
2,783970	-0,672847	39,144	-0,082893	22,460000	56,335000
2,783951	-0,102796	39,494	-0,082654	22,460000	56,335000
2,783955	-0,228955	39,845	-0,082707	22,460000	56,335000
2,783996	-0,158867	40,196	-0,082678	22,460000	56,335000
2,784048	0,071256	40,547	-0,082582	22,460000	56,320000
2,783962	-0,308388	40,899	-0,082740	22,460000	56,320000
2,784467	0,530334	41,242	-0,082390	22,460000	56,320000
2,784456	0,276848	41,594	-0,082496	22,460000	56,320000
2,784476	0,276848	41,944	-0,082496	22,460000	56,320000
2,784522	0,102796	42,296	-0,082568	22,460000	56,320000
2,784472	0,285025	42,646	-0,082492	22,460000	56,320000
2,784448	0,308388	43,006	-0,082482	22,460000	56,320000
2,784497	0,245309	43,357	-0,082509	22,460000	56,320000
2,784452	0,404175	43,708	-0,082442	22,460000	56,320000
2,784486	0,300211	44,058	-0,082486	22,460000	56,320000
2,784455	0,593414	44,409	-0,082363	22,460000	56,310000
2,784492	0,679856	44,761	-0,082327	22,460000	56,310000
2,784446	0,174052	45,129	-0,082539	22,460000	56,310000
2,784458	0,142513	45,483	-0,082552	22,460000	56,310000
2,784508	0,356282	45,837	-0,082462	22,460000	56,310000
2,784433	0,228955	46,199	-0,082516	22,460000	56,310000
2,784484	0,158867	46,550	-0,082545	22,460000	56,320000
2,784451	0,332919	46,902	-0,082472	22,460000	56,320000
2,784465	-0,039717	47,257	-0,082628	22,460000	56,320000
2,784387	0,245309	47,610	-0,082509	22,460000	56,320000
2,784483	0,110973	47,975	-0,082565	22,460000	56,320000
2,784456	0,482441	48,334	-0,082410	22,460000	56,310000
2,784466	0,205592	48,700	-0,082525	22,460000	56,310000
2,784489	0,450901	49,053	-0,082423	22,460000	56,310000
2,784457	0,197415	49,405	-0,082529	22,460000	56,310000
2,784487	0,245309	49,775	-0,082509	22,460000	56,310000
2,784431	0,190406	50,142	-0,082532	22,460000	56,310000
2,784560	0,142513	50,504	-0,082552	22,460000	56,320000
2,784499	0,545520	50,860	-0,082383	22,460000	56,320000
2,784478	0,260495	51,213	-0,082502	22,460000	56,320000
2,783925	-0,150690	51,552	-0,082674	22,460000	56,320000
2,783967	-0,221946	51,904	-0,082704	22,460000	56,320000
2,783961	-0,165875	52,254	-0,082681	22,460000	56,320000
2,784010	-0,182229	52,612	-0,082687	22,460000	56,320000
2,783952	-0,245309	52,965	-0,082714	22,460000	56,320000
2,783966	-0,158867	53,318	-0,082678	22,460000	56,320000
2,783987	-0,324742	53,686	-0,082747	22,460000	56,320000
2,783956	-0,300211	54,051	-0,082737	22,460000	56,320000
2,783974	-0,474264	54,411	-0,082810	22,460000	56,310000
2,784032	-0,442724	54,763	-0,082796	22,460000	56,310000
2,783975	-0,474264	55,136	-0,082810	22,460000	56,310000
2,783986	-0,031540	55,506	-0,082625	22,460000	56,310000
2,783992	-0,348105	55,858	-0,082757	22,460000	56,310000
2,783956	-0,300211	56,226	-0,082737	22,460000	56,310000
2,783918	-0,102796	56,603	-0,082654	22,460000	56,310000
2,783996	-0,205592	56,964	-0,082697	22,460000	56,310000
2,783964	-0,727749	57,316	-0,082916	22,460000	56,310000
2,783959	-0,395998	57,667	-0,082777	22,460000	56,310000
2,783962	-0,332919	58,045	-0,082750	22,460000	56,310000
2,783935	-0,570051	58,406	-0,082850	22,460000	56,310000
2,784013	-0,442724	58,764	-0,082796	22,460000	56,310000
2,784012	-0,300211	59,115	-0,082737	22,460000	56,310000
2,783996	-0,450901	59,465	-0,082800	22,460000	56,310000
2,784014	-0,165875	59,841	-0,082681	22,460000	56,310000
2,783947	-0,054902	60,209	-0,082634	22,460000	56,310000
2,783979	-0,395998	60,567	-0,082777	22,460000	56,335000
2,783951	-0,119150	60,917	-0,082661	22,460000	56,335000
2,783996	-0,102796	61,300	-0,082654	22,460000	56,335000
2,783969	-0,364459	61,655	-0,082764	22,460000	56,335000