File: Nanoindentation Datenauswertung/data/Drift/Drift-1, pressure on, chuck not activated
Drift test with MEMS displacement of 0,5 um, displacement data in [nm] and time increments of 30s
17.08.2022 11:39:56
-0,252318	0,000000	22,420000	55,205000
-0,102796	0,500000	22,420000	55,205000
-0,015186	1,000000	22,410000	55,220000
-1,249907	1,500000	22,410000	55,205000
131,538063	2,000000	22,400000	55,185000
129,670212	2,500000	22,410000	55,220000
128,254430	3,000000	22,410000	55,190000
127,715918	3,500000	22,410000	55,190000
126,623710	4,000000	22,410000	55,205000
125,967217	4,500000	22,410000	55,175000
125,761625	5,000000	22,410000	55,190000
125,436883	5,500000	22,410000	55,220000
124,550267	6,000000	22,420000	55,190000
124,780390	6,500000	22,410000	55,190000
124,866832	7,000000	22,410000	55,220000
124,511719	7,500000	22,410000	55,190000
124,099366	8,000000	22,410000	55,220000
124,495365	8,500000	22,410000	55,205000
124,661240	9,000000	22,400000	55,160000
124,226693	9,500000	22,410000	55,220000
124,258233	10,000000	22,410000	55,205000
123,941668	10,500000	22,410000	55,190000
124,123897	11,000000	22,420000	55,190000
123,079583	11,500000	22,420000	55,190000
123,340077	12,000000	22,420000	55,220000
123,348254	12,500000	22,410000	55,190000
123,166025	13,000000	22,410000	55,205000
123,063229	13,500000	22,410000	55,220000
122,453461	14,000000	22,400000	55,200000
122,857637	14,500000	22,410000	55,220000
122,580788	15,000000	22,410000	55,230000
122,635691	15,500000	22,410000	55,190000
121,891588	16,000000	22,420000	55,205000
121,899765	16,500000	22,420000	55,220000
121,354245	17,000000	22,410000	55,230000
121,402138	17,500000	22,420000	55,205000
121,180192	18,000000	22,410000	55,175000
121,409147	18,500000	22,410000	55,220000
121,860048	19,000000	22,410000	55,220000
121,021326	19,500000	22,400000	55,215000
120,697752	20,000000	22,420000	55,220000
121,069219	20,500000	22,410000	55,220000
121,203555	21,000000	22,420000	55,220000
121,631093	21,500000	22,420000	55,205000
120,752654	22,000000	22,410000	55,205000
120,832087	22,500000	22,410000	55,220000
120,547062	23,000000	22,410000	55,245000
120,585610	23,500000	22,410000	55,205000
120,111347	24,000000	22,410000	55,230000
120,285399	24,500000	22,420000	55,230000
120,641681	25,000000	22,410000	55,205000
120,096161	25,500000	22,410000	55,220000
120,262036	26,000000	22,410000	55,220000
119,834498	26,500000	22,420000	55,230000
119,660446	27,000000	22,410000	55,220000
119,534287	27,500000	22,410000	55,230000
119,723525	28,000000	22,410000	55,220000
119,478217	28,500000	22,410000	55,205000
119,691986	29,000000	22,400000	55,215000
119,819313	29,500000	22,410000	55,230000
119,905755	30,000000	22,410000	55,220000
119,335704	30,500000	22,410000	55,220000
119,043670	31,000000	22,400000	55,200000
118,647671	31,500000	22,410000	55,205000
119,114926	32,000000	22,410000	55,230000
119,367244	32,500000	22,420000	55,230000
119,272624	33,000000	22,420000	55,205000
119,067032	33,500000	22,400000	55,225000
118,972413	34,000000	22,410000	55,205000
118,742290	34,500000	22,410000	55,205000
119,367244	35,000000	22,410000	55,230000
118,607955	35,500000	22,410000	55,205000
118,544875	36,000000	22,410000	55,220000
118,561229	36,500000	22,420000	55,220000
118,426893	37,000000	22,400000	55,200000
118,782007	37,500000	22,420000	55,220000
119,241085	38,000000	22,420000	55,205000
118,576415	38,500000	22,420000	55,190000
118,473619	39,000000	22,420000	55,205000
117,856842	39,500000	22,420000	55,220000
117,863851	40,000000	22,420000	55,205000
118,173408	40,500000	22,400000	55,185000
117,452667	41,000000	22,400000	55,215000
118,394185	41,500000	22,410000	55,220000
117,421127	42,000000	22,410000	55,190000
117,540277	42,500000	22,410000	55,205000
117,650082	43,000000	22,400000	55,185000
117,175819	43,500000	22,410000	55,205000
117,492384	44,000000	22,410000	55,220000
117,548454	44,500000	22,420000	55,245000
117,381411	45,000000	22,420000	55,175000
116,875607	45,500000	22,420000	55,220000
116,630299	46,000000	22,410000	55,205000
116,875607	46,500000	22,410000	55,190000
117,104562	47,000000	22,410000	55,205000
116,724918	47,500000	22,410000	55,220000
117,025129	48,000000	22,410000	55,230000
118,022718	48,500000	22,410000	55,220000
117,238898	49,000000	22,410000	55,220000
116,787997	49,500000	22,410000	55,205000
116,416530	50,000000	22,410000	55,220000
116,605768	50,500000	22,400000	55,225000
116,590582	51,000000	22,410000	55,230000
116,613945	51,500000	22,410000	55,190000
116,574228	52,000000	22,420000	55,220000
116,559042	52,500000	22,420000	55,205000
116,210937	53,000000	22,420000	55,230000
116,076602	53,500000	22,420000	55,230000
115,925912	54,000000	22,410000	55,230000
115,814939	54,500000	22,410000	55,220000
115,561453	55,000000	22,420000	55,205000
115,221525	55,500000	22,410000	55,205000
115,846479	56,000000	22,410000	55,220000
114,896783	56,500000	22,410000	55,205000
115,102376	57,000000	22,420000	55,205000
114,913137	57,500000	22,410000	55,220000
115,054482	58,000000	22,420000	55,220000
114,857067	58,500000	22,410000	55,230000
114,643298	59,000000	22,420000	55,190000
114,573209	59,500000	22,410000	55,220000
114,208751	60,000000	22,410000	55,220000
114,659652	60,500000	22,410000	55,220000
114,778802	61,000000	22,410000	55,205000
114,968040	61,500000	22,420000	55,220000
114,739085	62,000000	22,410000	55,220000
114,580218	62,500000	22,410000	55,205000
114,873421	63,000000	22,420000	55,230000
113,875832	63,500000	22,410000	55,220000
113,955265	64,000000	22,420000	55,220000
113,884009	64,500000	22,410000	55,230000
113,820929	65,000000	22,410000	55,230000
116,456246	65,500000	22,410000	55,205000
116,724918	66,000000	22,410000	55,190000
116,091788	66,500000	22,410000	55,220000
115,372215	67,000000	22,410000	55,220000
115,435295	67,500000	22,410000	55,205000