File: Nanoindentation Datenauswertung/data/Drift/Drift-3, vacuum chuck activated, on 3inchwafer
Drift test with MEMS displacement of 0,5 um, displacement data in [nm] and time increments of 30s
15.09.2022 15:21:05
eoh
-0,180502	0,000000	22,270000	50,150000
207,196710	4,500000	22,270000	50,530000
421,055798	9,000000	22,270000	50,465000
376,410462	13,500000	22,270000	50,370000
329,304049	18,000000	22,280000	50,370000
288,068582	22,500000	22,280000	50,295000
251,645346	27,000000	22,290000	50,285000
221,327940	31,500000	22,290000	50,270000
195,730200	36,000000	22,290000	50,245000
172,984625	40,500000	22,300000	50,205000
154,815240	45,000000	22,290000	50,155000
139,265449	49,500000	22,290000	50,115000
126,763366	54,000000	22,300000	50,100000
115,116354	58,500000	22,290000	50,060000
105,459493	63,000000	22,290000	50,035000
97,442193	67,500000	22,290000	50,010000
91,116521	72,000000	22,290000	49,995000
85,417978	76,500000	22,290000	49,955000
80,518967	81,000000	22,290000	49,945000
77,438861	85,500000	22,290000	49,915000
73,058214	90,000000	22,290000	49,825000
70,142412	94,500000	22,290000	49,850000
67,399011	99,000000	22,290000	49,785000
66,489559	103,500000	22,280000	49,780000
-9,875546	108,000000	22,280000	49,740000
263,300457	112,500000	22,290000	49,695000
261,395929	117,000000	22,290000	49,665000
259,829264	121,500000	22,290000	49,665000
260,103488	126,000000	22,280000	49,650000
259,335197	130,500000	22,290000	49,615000
259,233375	135,000000	22,280000	49,610000
259,844305	139,500000	22,280000	49,560000
259,640662	144,000000	22,280000	49,570000
260,863679	148,500000	22,280000	49,520000
261,380887	153,000000	22,270000	49,490000
262,540266	157,500000	22,280000	49,465000
262,791349	162,000000	22,280000	49,445000
264,014366	166,500000	22,280000	49,390000
264,994400	171,000000	22,280000	49,405000
271,617437	175,500000	22,270000	49,450000
275,802540	180,000000	22,270000	49,440000
280,003841	184,500000	22,270000	49,425000
288,217843	189,000000	22,280000	49,455000
298,132729	193,500000	22,260000	49,505000
301,385238	198,000000	22,270000	49,505000
301,550698	202,500000	22,280000	49,455000
302,851239	207,000000	22,280000	49,455000
301,455819	211,500000	22,280000	49,455000
299,308307	216,000000	22,270000	49,425000
299,496908	220,500000	22,260000	49,425000
298,533074	225,000000	22,260000	49,400000
298,148928	229,500000	22,250000	49,400000
296,832189	234,000000	22,260000	49,385000
295,358088	238,500000	22,250000	49,345000
294,699719	243,000000	22,260000	49,345000
293,156194	247,500000	22,240000	49,325000
292,998834	252,000000	22,230000	49,355000
293,993909	256,500000	22,240000	49,340000
295,530491	261,000000	22,230000	49,315000
297,505600	265,500000	22,230000	49,325000
299,457568	270,000000	22,230000	49,315000
302,342130	274,500000	22,230000	49,315000
304,780065	279,000000	22,230000	49,340000
306,981959	283,500000	22,230000	49,325000
310,956476	288,000000	22,200000	49,320000
313,166469	292,500000	22,210000	49,320000
317,289090	297,000000	22,210000	49,360000
322,470425	301,500000	22,200000	49,350000
324,993983	306,000000	22,200000	49,335000
329,179086	310,500000	22,190000	49,320000
332,502175	315,000000	22,200000	49,335000
336,868937	319,500000	22,190000	49,375000
340,865438	324,000000	22,180000	49,335000
345,145420	328,500000	22,180000	49,350000
347,723360	333,000000	22,180000	49,350000
351,674735	337,500000	22,180000	49,350000
356,119020	342,000000	22,170000	49,370000
359,292848	346,500000	22,170000	49,355000
363,924578	351,000000	22,160000	49,355000
369,020290	355,500000	22,160000	49,385000
373,698302	360,000000	22,150000	49,385000
378,652853	364,500000	22,150000	49,355000
383,386404	369,000000	22,150000	49,385000
385,244650	373,500000	22,150000	49,385000
388,943785	378,000000	22,140000	49,390000
394,955893	382,500000	22,150000	49,370000
399,674402	387,000000	22,140000	49,380000
401,860097	391,500000	22,140000	49,350000
406,030158	396,000000	22,140000	49,390000
410,388820	400,500000	22,130000	49,390000
414,409619	405,000000	22,140000	49,380000
418,312398	409,500000	22,130000	49,350000
423,007766	414,000000	22,130000	49,350000
424,551290	418,500000	22,130000	49,390000
427,929919	423,000000	22,110000	49,385000
431,629054	427,500000	22,110000	49,360000
434,200052	432,000000	22,110000	49,375000
438,142171	436,500000	22,100000	49,360000
442,108588	441,000000	22,110000	49,375000
445,259275	445,500000	22,110000	49,345000
448,025816	450,000000	22,100000	49,375000
450,997158	454,500000	22,100000	49,360000
454,853654	459,000000	22,100000	49,375000
458,074922	463,500000	22,080000	49,375000
461,381813	468,000000	22,080000	49,385000
464,407537	472,500000	22,090000	49,375000
467,605663	477,000000	22,090000	49,345000
470,905611	481,500000	22,080000	49,360000
475,098813	486,000000	22,080000	49,360000
475,890245	490,500000	22,080000	49,385000
478,484384	495,000000	22,080000	49,360000
482,568822	499,500000	22,080000	49,385000
485,256683	504,000000	22,080000	49,360000
487,083688	508,500000	22,080000	49,375000
489,873371	513,000000	22,080000	49,360000
492,961576	517,500000	22,070000	49,395000
495,007266	522,000000	22,070000	49,395000
499,114846	526,500000	22,060000	49,370000
502,845222	531,000000	22,070000	49,355000
505,956568	535,500000	22,060000	49,370000
506,772299	540,000000	22,060000	49,355000
508,747408	544,500000	22,060000	49,355000
513,003092	549,000000	22,060000	49,340000
515,449126	553,500000	22,070000	49,340000
517,424235	558,000000	22,060000	49,370000
519,854071	562,500000	22,050000	49,340000
521,648678	567,000000	22,050000	49,330000
523,991734	571,500000	22,050000	49,340000
525,810639	576,000000	22,040000	49,335000
527,848230	580,500000	22,050000	49,340000
530,873954	585,000000	22,040000	49,325000
532,817822	589,500000	22,040000	49,335000
533,844139	594,000000	22,040000	49,310000
537,528232	598,500000	22,050000	49,355000
539,495242	603,000000	22,030000	49,335000
541,893837	607,500000	22,030000	49,335000
543,602821	612,000000	22,030000	49,310000
545,405528	616,500000	22,040000	49,335000
548,039007	621,000000	22,030000	49,310000
550,249000	625,500000	22,030000	49,295000
551,033490	630,000000	22,030000	49,270000
553,439027	634,500000	22,030000	49,295000
556,174328	639,000000	22,030000	49,325000
557,546607	643,500000	22,020000	49,325000
559,270633	648,000000	22,030000	49,285000
561,340621	652,500000	22,020000	49,310000
562,038331	657,000000	22,030000	49,285000
564,498251	661,500000	22,020000	49,295000
565,972351	666,000000	22,030000	49,295000
568,950635	670,500000	22,030000	49,260000
570,165553	675,000000	22,020000	49,285000
573,818406	679,500000	22,020000	49,270000
572,900853	684,000000	22,020000	49,285000
574,734801	688,500000	22,020000	49,270000
575,831698	693,000000	22,020000	49,285000
577,203977	697,500000	22,010000	49,290000
579,656953	702,000000	22,010000	49,265000
581,617021	706,500000	22,010000	49,280000
584,807048	711,000000	22,010000	49,265000
585,465418	715,500000	22,010000	49,255000
588,036415	720,000000	22,010000	49,255000
588,192619	724,500000	22,010000	49,255000
590,410712	729,000000	22,010000	49,255000
590,849239	733,500000	22,010000	49,200000
592,942369	738,000000	22,010000	49,230000
594,001083	742,500000	22,010000	49,215000
595,905611	747,000000	22,010000	49,215000
596,994409	751,500000	22,010000	49,200000
597,598397	756,000000	22,000000	49,190000
599,675328	760,500000	22,010000	49,200000
599,808390	765,000000	22,000000	49,160000
600,576681	769,500000	22,000000	49,190000
602,395586	774,000000	22,000000	49,175000
602,881554	778,500000	22,000000	49,160000
604,699302	783,000000	22,000000	49,150000
607,027316	787,500000	22,000000	49,175000
607,756267	792,000000	21,990000	49,160000
609,371529	796,500000	21,990000	49,150000
610,445285	801,000000	21,990000	49,135000
611,463502	805,500000	22,000000	49,160000
612,663378	810,000000	21,990000	49,135000
614,183760	814,500000	21,990000	49,135000
615,186935	819,000000	21,980000	49,150000
616,746658	823,500000	21,980000	49,095000
618,125879	828,000000	21,980000	49,120000
619,161452	832,500000	21,990000	49,135000
618,815490	837,000000	21,990000	49,095000
620,696877	841,500000	21,980000	49,080000
620,751259	846,000000	21,980000	49,030000
622,860588	850,500000	21,980000	49,070000
625,587789	855,000000	21,990000	49,110000
626,943868	859,500000	21,980000	49,045000
627,531657	864,000000	21,980000	49,080000
628,441110	868,500000	21,980000	49,080000
627,955143	873,000000	21,990000	49,045000
629,687269	877,500000	21,980000	49,055000
630,627962	882,000000	21,980000	49,055000
632,461909	886,500000	21,980000	49,030000
633,817989	891,000000	21,980000	49,030000
635,801198	895,500000	21,980000	49,055000
635,542015	900,000000	21,980000	48,975000
636,177244	904,500000	21,980000	48,990000
637,031157	909,000000	21,980000	49,030000
637,117937	913,500000	21,980000	48,975000
637,853830	918,000000	21,980000	48,990000
638,615179	922,500000	21,980000	48,975000
637,618946	927,000000	21,980000	48,990000
639,445951	931,500000	21,970000	48,970000
639,688935	936,000000	21,980000	48,965000
640,134405	940,500000	21,980000	48,950000
639,758359	945,000000	21,980000	48,935000
640,769633	949,500000	21,980000	48,925000
642,470518	954,000000	21,980000	48,935000
644,100822	958,500000	21,970000	48,930000
644,266282	963,000000	21,980000	48,910000
644,445627	967,500000	21,970000	48,880000
644,007100	972,000000	21,980000	48,910000
644,594889	976,500000	21,980000	48,925000
644,148262	981,000000	21,970000	48,880000
644,829773	985,500000	21,980000	48,895000
645,346981	990,000000	21,980000	48,870000
646,162711	994,500000	21,970000	48,855000
646,044690	999,000000	21,970000	48,855000
646,593139	1003,500000	21,980000	48,845000
647,440110	1008,000000	21,980000	48,835000