File: Nanoindentation Datenauswertung/data/PDMS/13.09/APM-PDMS-150ms,3um,20nms,9cycles,1,5um offset,5x1-3
Quasi static measurement routine
Tip parameters (shape,radius, material...)
13.09.2022

Piezo position[nm]	MEMS displ.[nm]	Time[ms]	Cap [pf]	Temp [°C]	Rh [%]
eoh

X-Pos [um]	Y-Pos [um]
0,000197	0,000989

POC
2,166052
0,726143	0,126120	4,055	-0,075771	22,290000	52,265000
0,789175	0,133062	7,210	-0,075768	22,290000	52,280000
0,852169	0,149261	10,365	-0,075761	22,300000	52,270000
0,915150	0,211743	13,521	-0,075735	22,290000	52,265000
0,978147	0,165460	16,671	-0,075754	22,300000	52,285000
1,041180	0,305465	19,826	-0,075695	22,300000	52,285000
1,104135	0,196701	22,980	-0,075741	22,290000	52,290000
1,167170	0,047440	26,137	-0,075804	22,300000	52,295000
1,230158	0,094879	29,297	-0,075784	22,300000	52,295000
1,293172	0,078680	32,450	-0,075791	22,300000	52,255000
1,356159	0,219842	35,605	-0,075731	22,290000	52,250000
1,419159	0,086780	38,760	-0,075788	22,300000	52,270000
1,482177	0,126120	41,915	-0,075771	22,300000	52,325000
1,545187	-0,038183	45,068	-0,075840	22,300000	52,255000
1,608168	-0,062481	48,219	-0,075851	22,300000	52,285000
1,671101	-0,210586	51,375	-0,075913	22,300000	52,285000
1,734097	-8,230200	54,530	-0,079297	22,300000	52,285000
1,797110	-207,988142	57,685	-0,163595	22,290000	52,330000
1,860154	-195,055632	60,838	-0,158138	22,290000	52,330000
1,923131	-156,422403	63,993	-0,141834	22,310000	52,295000
1,986151	-118,510025	67,149	-0,125835	22,300000	52,295000
2,049059	-78,575098	70,306	-0,108983	22,300000	52,310000
2,112084	-38,155361	73,459	-0,091926	22,310000	52,285000
2,175106	5,228775	76,618	-0,073618	22,300000	52,285000
2,238090	47,577338	79,777	-0,055747	22,290000	52,290000
2,301039	88,648502	82,933	-0,038415	22,300000	52,270000
2,334085	111,189277	86,088	-0,028902	22,300000	52,285000
2,334131	108,823080	89,243	-0,029901	22,300000	52,270000
2,334139	107,616262	92,396	-0,030410	22,300000	52,270000
2,316087	95,122279	95,554	-0,035683	22,300000	52,270000
2,328161	100,985125	98,600	-0,033208	22,290000	52,280000
2,391166	145,880387	101,755	-0,014263	22,290000	52,290000
2,454121	190,164720	104,909	0,004425	22,300000	52,285000
2,502125	224,307381	108,069	0,018833	22,300000	52,285000
2,502095	221,744483	111,223	0,017752	22,300000	52,285000
2,502091	220,020457	114,378	0,017024	22,300000	52,295000
2,499121	218,640079	117,531	0,016442	22,310000	52,270000
2,436107	168,344796	120,693	-0,004783	22,300000	52,270000
2,460103	187,007090	123,731	0,003093	22,300000	52,285000
2,523142	231,949793	126,886	0,022059	22,290000	52,280000
2,586104	277,025557	130,045	0,041081	22,310000	52,310000
2,649114	321,631554	133,200	0,059904	22,310000	52,310000
2,670055	336,382970	136,356	0,066129	22,300000	52,285000
2,670067	334,838289	139,511	0,065478	22,310000	52,295000
2,670115	333,654612	142,665	0,064978	22,300000	52,255000
2,640070	309,858422	145,821	0,054936	22,310000	52,295000
2,577117	262,572664	148,981	0,034981	22,300000	52,295000
2,571155	258,026557	152,021	0,033063	22,310000	52,270000
2,634081	304,873787	155,178	0,052833	22,310000	52,285000
2,697088	351,917719	158,335	0,072685	22,300000	52,295000
2,760107	397,267708	161,494	0,091823	22,300000	52,270000
2,823074	443,771290	164,650	0,111447	22,300000	52,285000
2,838104	452,126453	167,805	0,114973	22,300000	52,270000
2,838143	450,793515	170,965	0,114411	22,300000	52,270000
2,838019	450,245066	174,118	0,114179	22,300000	52,270000
2,802057	421,267541	177,273	0,101951	22,300000	52,295000
2,739118	375,157361	180,426	0,082492	22,300000	52,295000
2,676122	327,062815	183,580	0,062196	22,290000	52,290000
2,724149	364,129378	186,624	0,077838	22,290000	52,265000
2,787085	410,153936	189,779	0,097261	22,300000	52,295000
2,850117	458,411628	192,933	0,117625	22,300000	52,310000
2,913066	505,299356	196,088	0,137412	22,310000	52,295000
2,976002	548,869779	199,245	0,155799	22,310000	52,295000
3,006024	571,662794	202,397	0,165417	22,300000	52,270000
3,006011	570,088029	205,549	0,164753	22,300000	52,310000
3,006022	569,241058	208,709	0,164396	22,310000	52,285000
2,985035	554,121695	211,867	0,158015	22,300000	52,295000
2,922058	505,079513	215,022	0,137319	22,300000	52,295000
2,859081	455,638144	218,176	0,116455	22,300000	52,295000
2,796034	409,190101	221,339	0,096854	22,290000	52,305000
2,856109	453,646836	224,397	0,115615	22,300000	52,325000
2,919043	501,693943	227,549	0,135891	22,300000	52,325000
2,982079	550,069655	230,706	0,156305	22,300000	52,295000
3,045006	598,649011	233,864	0,176806	22,300000	52,295000
3,108006	642,447377	237,024	0,195289	22,300000	52,325000
3,171050	688,598054	240,177	0,214764	22,310000	52,285000
3,174021	690,965408	243,338	0,215763	22,310000	52,285000
3,174022	689,992317	246,491	0,215353	22,300000	52,295000
3,174035	688,841038	249,650	0,214867	22,300000	52,325000
3,126046	653,420977	252,810	0,199919	22,300000	52,295000
3,063088	604,331356	255,963	0,179204	22,300000	52,310000
3,000068	555,673319	259,121	0,158670	22,300000	52,310000
2,937123	507,062722	262,275	0,138156	22,290000	52,320000
2,967081	529,855737	265,318	0,147775	22,290000	52,320000
3,030081	579,187185	268,473	0,168593	22,300000	52,270000
3,093072	626,779565	271,633	0,188677	22,310000	52,325000
3,156031	673,995899	274,787	0,208602	22,300000	52,255000
3,219078	721,376537	277,942	0,228597	22,300000	52,270000
3,282059	770,080856	281,097	0,249150	22,300000	52,310000
3,342033	814,663711	284,252	0,267964	22,300000	52,295000
3,341999	811,833531	287,408	0,266770	22,300000	52,295000
3,342004	810,767874	290,562	0,266320	22,300000	52,310000
3,342001	809,835280	293,719	0,265926	22,300000	52,325000
3,288034	769,305622	296,878	0,248823	22,300000	52,295000
3,225084	719,173486	300,033	0,227667	22,300000	52,325000
3,162017	671,456143	303,192	0,207530	22,300000	52,325000
3,099102	624,333531	306,348	0,187645	22,300000	52,325000
3,057062	589,118271	309,397	0,172784	22,300000	52,310000
3,120122	639,766458	312,550	0,194157	22,290000	52,305000
3,183070	689,514449	315,705	0,215151	22,310000	52,310000
3,246051	737,968843	318,861	0,235599	22,300000	52,310000
3,308952	783,578014	322,015	0,254846	22,300000	52,285000
3,372031	830,621945	325,172	0,274698	22,300000	52,285000
3,435017	877,697118	328,327	0,294564	22,310000	52,285000
3,497983	927,123445	331,480	0,315422	22,300000	52,310000
3,510006	933,902686	334,637	0,318283	22,290000	52,345000
3,509966	932,507266	337,796	0,317694	22,300000	52,325000
3,509969	931,316647	340,955	0,317191	22,290000	52,320000
3,470997	899,948626	344,112	0,303954	22,300000	52,285000
3,408039	853,187019	347,268	0,284221	22,300000	52,285000
3,345058	802,773715	350,421	0,262946	22,310000	52,295000
3,281969	754,946451	353,576	0,242763	22,300000	52,325000
3,219073	708,176744	356,733	0,223026	22,300000	52,285000
3,189102	683,894587	359,816	0,212779	22,290000	52,280000
3,252031	736,197377	362,970	0,234851	22,300000	52,285000
3,315036	784,910952	366,127	0,255408	22,310000	52,310000
3,378001	830,512024	369,283	0,274652	22,310000	52,310000
3,440973	878,088205	372,439	0,294729	22,290000	52,305000
3,503966	928,031741	375,597	0,315805	22,300000	52,310000
3,566913	972,786998	378,753	0,334692	22,300000	52,285000
3,629937	1022,362587	381,909	0,355613	22,310000	52,310000
3,677978	1056,707735	385,063	0,370106	22,290000	52,280000
3,677977	1055,187352	388,219	0,369465	22,310000	52,270000
3,677983	1054,051114	391,377	0,368985	22,290000	52,280000
3,674963	1051,432677	394,534	0,367880	22,290000	52,280000
3,611947	1003,096305	397,690	0,347482	22,290000	52,280000
3,548958	952,972267	400,845	0,326330	22,310000	52,310000
3,485994	903,115512	404,005	0,305291	22,310000	52,310000
3,422943	857,514440	407,159	0,286047	22,300000	52,325000
3,360044	810,204384	410,312	0,266082	22,300000	52,295000
3,297053	762,620103	413,467	0,246001	22,300000	52,295000
3,234039	715,576172	416,625	0,226149	22,300000	52,310000
3,171022	666,941277	419,779	0,205625	22,300000	52,270000
3,108076	621,786832	422,933	0,186570	22,300000	52,295000
3,045036	575,519291	426,088	0,167045	22,300000	52,310000
2,982041	529,125629	429,244	0,147467	22,300000	52,310000
2,919089	480,413211	432,401	0,126910	22,300000	52,295000
2,856062	436,747908	435,555	0,108483	22,300000	52,310000
2,793086	391,334281	438,711	0,089319	22,290000	52,290000
2,730095	343,734958	441,867	0,069232	22,310000	52,350000
2,667140	298,846638	445,021	0,050289	22,310000	52,350000
2,604179	253,927077	448,177	0,031333	22,300000	52,270000
2,541093	208,936935	451,332	0,012347	22,300000	52,310000
2,478084	164,370279	454,489	-0,006460	22,300000	52,310000
2,415057	116,887820	457,646	-0,026498	22,300000	52,310000
2,352104	74,641079	460,799	-0,044326	22,300000	52,310000
2,289144	30,647169	463,953	-0,062891	22,310000	52,335000
2,226056	-11,819415	467,108	-0,080812	22,290000	52,320000
2,163073	-53,933094	470,264	-0,098584	22,300000	52,310000
2,100080	-98,209327	473,416	-0,117269	22,300000	52,310000
2,037197	-138,645263	476,569	-0,134333	22,300000	52,335000
1,974143	-180,806381	479,729	-0,152125	22,300000	52,285000
1,911113	-224,565407	482,883	-0,170591	22,290000	52,345000
1,848164	-267,736643	486,037	-0,188809	22,310000	52,310000
1,785230	-307,765292	489,196	-0,205701	22,310000	52,310000
1,722168	-348,719592	492,351	-0,222984	22,300000	52,325000
1,659130	-386,599572	495,508	-0,238969	22,310000	52,310000
1,596124	-427,639496	498,666	-0,256288	22,300000	52,335000
1,533192	-466,312065	501,823	-0,272608	22,300000	52,295000
1,470173	-499,693378	504,978	-0,286695	22,300000	52,325000
1,407151	-537,551374	508,136	-0,302671	22,300000	52,310000
1,344173	-572,587289	511,291	-0,317456	22,290000	52,280000
1,281161	-605,561315	514,449	-0,331371	22,310000	52,310000
1,218173	-638,042432	517,605	-0,345078	22,300000	52,325000
1,155162	-665,616438	520,759	-0,356714	22,310000	52,310000
1,092115	-690,744409	523,911	-0,367318	22,300000	52,270000
1,029119	-711,130730	527,065	-0,375921	22,290000	52,320000
0,966142	-725,420477	530,221	-0,381952	22,300000	52,310000
0,903203	-723,992660	533,376	-0,381349	22,300000	52,310000
0,840204	0,242984	536,530	-0,075722	22,290000	52,280000
0,777200	0,784490	539,685	-0,075493	22,300000	52,335000
0,714182	0,689610	542,840	-0,075533	22,300000	52,310000
0,666228	0,627129	545,244	-0,075560	22,300000	52,325000

X-Pos [um]	Y-Pos [um]
0,000301	0,000227

POC
2,174082
0,734319	0,008099	4,051	-0,075589	22,300000	52,325000
0,797261	-0,164303	7,208	-0,075662	22,290000	52,320000
0,860288	0,024298	10,364	-0,075583	22,290000	52,320000
0,923243	0,071738	13,519	-0,075563	22,310000	52,335000
0,986243	-0,006942	16,674	-0,075596	22,300000	52,325000
1,049257	0,094879	19,828	-0,075553	22,300000	52,310000
1,112267	-0,038183	22,980	-0,075609	22,300000	52,295000
1,175247	0,141162	26,134	-0,075533	22,300000	52,295000
1,238258	-0,006942	29,291	-0,075596	22,290000	52,330000
1,301234	0,000000	32,444	-0,075593	22,290000	52,305000
1,364269	-0,046283	35,597	-0,075612	22,310000	52,325000
1,427220	-0,093722	38,748	-0,075632	22,300000	52,350000
1,490216	-0,101822	41,906	-0,075636	22,300000	52,310000
1,553238	-0,077523	45,059	-0,075625	22,300000	52,310000
1,616243	-0,031241	48,213	-0,075606	22,290000	52,320000
1,679223	-0,133062	51,370	-0,075649	22,300000	52,310000
1,742227	-8,848073	54,528	-0,079327	22,300000	52,310000
1,805202	-228,806048	57,685	-0,172149	22,300000	52,335000
1,868191	-196,482292	60,840	-0,158508	22,290000	52,290000
1,931224	-156,649187	63,994	-0,141699	22,300000	52,335000
1,994176	-119,465760	67,153	-0,126007	22,300000	52,295000
2,057207	-78,786841	70,307	-0,108841	22,290000	52,290000
2,120187	-37,543274	73,461	-0,091436	22,300000	52,325000
2,183219	4,122621	76,614	-0,073853	22,290000	52,305000
2,246220	48,651094	79,767	-0,055062	22,300000	52,310000
2,309147	90,787915	82,922	-0,037280	22,300000	52,325000
2,342215	110,712567	86,076	-0,028872	22,300000	52,310000
2,342143	108,297773	89,229	-0,029891	22,300000	52,325000
2,342194	106,996075	92,380	-0,030440	22,300000	52,325000
2,324167	94,596971	95,536	-0,035673	22,300000	52,295000
2,336196	101,722175	98,574	-0,032666	22,310000	52,295000
2,399197	147,267708	101,727	-0,013446	22,300000	52,310000
2,462234	191,528899	104,886	0,005232	22,300000	52,325000
2,510157	224,049356	108,040	0,018956	22,300000	52,335000
2,510144	221,415877	111,195	0,017845	22,300000	52,295000
2,510167	219,401427	114,352	0,016995	22,300000	52,325000
2,507173	216,328264	117,508	0,015698	22,310000	52,350000
2,444155	167,803290	120,663	-0,004780	22,300000	52,310000
2,468137	186,905269	123,703	0,003281	22,310000	52,285000
2,531163	234,199126	126,859	0,023239	22,300000	52,335000
2,594175	279,768957	130,016	0,042470	22,290000	52,320000
2,657203	321,780815	133,170	0,060199	22,310000	52,295000
2,678197	336,727775	136,324	0,066506	22,300000	52,325000
2,678142	335,003749	139,480	0,065779	22,290000	52,305000
2,678153	333,945035	142,636	0,065332	22,290000	52,320000
2,648169	311,184418	145,792	0,055727	22,310000	52,325000
2,585235	262,235958	148,947	0,035071	22,310000	52,350000
2,579185	257,258266	151,989	0,032970	22,300000	52,310000
2,642264	306,981959	155,144	0,053954	22,300000	52,325000
2,705113	352,835271	158,301	0,073304	22,300000	52,350000
2,768170	398,804289	161,457	0,092703	22,300000	52,295000
2,831146	444,789507	164,611	0,112108	22,290000	52,305000
2,846220	453,302031	167,766	0,115701	22,300000	52,335000
2,846177	451,860328	170,925	0,115092	22,300000	52,365000
2,846183	451,154519	174,078	0,114794	22,300000	52,350000
2,810149	423,368770	177,232	0,103069	22,300000	52,335000
2,747119	376,505341	180,387	0,083292	22,290000	52,330000
2,684162	326,962150	183,546	0,062385	22,310000	52,295000
2,732155	365,124454	186,584	0,078490	22,310000	52,335000
2,795219	413,524465	189,740	0,098915	22,300000	52,350000
2,858138	458,342204	192,900	0,117828	22,300000	52,325000
2,921162	504,578505	196,051	0,137339	22,290000	52,345000
2,984176	550,547523	199,207	0,156738	22,300000	52,350000
3,014116	573,286156	202,363	0,166334	22,300000	52,350000
3,014093	572,250583	205,520	0,165897	22,300000	52,335000
3,014094	571,153686	208,681	0,165434	22,310000	52,285000
2,993068	556,512191	211,837	0,159255	22,300000	52,350000
2,930117	506,176411	214,990	0,138014	22,300000	52,325000
2,867109	459,650844	218,142	0,118380	22,300000	52,325000
2,804159	412,238966	221,300	0,098372	22,310000	52,310000
2,864198	457,511432	224,343	0,117477	22,300000	52,310000
2,927164	506,458734	227,501	0,138133	22,300000	52,325000
2,990170	553,894911	230,654	0,158151	22,300000	52,310000
3,053161	598,500907	233,809	0,176975	22,290000	52,370000
3,116144	644,947793	236,966	0,196575	22,290000	52,330000
3,179079	691,302114	240,124	0,216137	22,290000	52,330000
3,182113	693,746992	243,282	0,217168	22,300000	52,335000
3,182092	692,595712	246,436	0,216683	22,320000	52,335000
3,182069	691,584438	249,589	0,216256	22,300000	52,295000
3,134151	653,397836	252,742	0,200141	22,300000	52,365000
3,071146	607,357079	255,899	0,180712	22,300000	52,325000
3,008137	557,123121	259,052	0,159513	22,310000	52,310000
2,945122	511,224683	262,207	0,140144	22,310000	52,310000
2,975175	532,771540	265,259	0,149237	22,300000	52,310000
3,038098	584,023715	268,412	0,170865	22,300000	52,310000
3,101100	629,499824	271,568	0,190056	22,300000	52,375000
3,164100	678,282824	274,728	0,210643	22,290000	52,320000
3,227119	723,970675	277,881	0,229923	22,290000	52,345000
3,290124	771,405695	281,036	0,249940	22,290000	52,320000
3,350061	817,203467	284,193	0,269267	22,320000	52,325000
3,350106	815,197118	287,348	0,268420	22,300000	52,350000
3,350065	814,318906	290,502	0,268050	22,300000	52,310000
3,350121	813,088946	293,659	0,267531	22,300000	52,365000
3,296104	770,324996	296,817	0,249484	22,300000	52,325000
3,233084	721,823164	299,976	0,229017	22,310000	52,350000
3,170102	673,659194	303,130	0,208691	22,310000	52,325000
3,107135	626,058714	306,287	0,188604	22,310000	52,335000
3,065120	593,091630	309,322	0,174692	22,310000	52,335000
3,128130	643,670394	312,479	0,196036	22,310000	52,335000
3,191108	693,221684	315,634	0,216947	22,300000	52,350000
3,254067	741,339372	318,791	0,237252	22,290000	52,320000
3,317091	788,618187	321,951	0,257204	22,290000	52,370000
3,380106	835,191193	325,106	0,276858	22,300000	52,335000
3,443079	883,057798	328,266	0,297058	22,300000	52,335000
3,506023	930,760099	331,419	0,317188	22,300000	52,325000
3,518091	937,719842	334,576	0,320125	22,300000	52,350000
3,517978	936,646086	337,729	0,319672	22,300000	52,310000
3,518084	935,807215	340,886	0,319318	22,310000	52,335000
3,479045	906,862087	344,046	0,307103	22,310000	52,335000
3,416062	857,215918	347,198	0,286152	22,310000	52,310000
3,353073	808,111254	350,352	0,265430	22,290000	52,320000
3,290110	760,377712	353,508	0,245287	22,300000	52,375000
3,227098	710,787082	356,664	0,224359	22,300000	52,335000
3,197136	688,261348	359,706	0,214854	22,300000	52,365000
3,260082	737,655278	362,862	0,235698	22,310000	52,335000
3,323093	788,954893	366,017	0,257346	22,310000	52,335000
3,386061	836,814555	369,176	0,277543	22,320000	52,350000
3,449044	884,123454	372,333	0,297507	22,300000	52,310000
3,512051	929,537082	375,486	0,316672	22,290000	52,330000
3,574991	979,394994	378,642	0,337712	22,300000	52,335000
3,638026	1024,510099	381,797	0,356750	22,290000	52,360000
3,685995	1061,199459	384,950	0,372233	22,300000	52,365000
3,686023	1059,114429	388,106	0,371354	22,300000	52,365000
3,686036	1058,479201	391,264	0,371085	22,300000	52,365000
3,682970	1055,164211	394,420	0,369687	22,300000	52,295000
3,620079	1007,736134	397,574	0,349672	22,300000	52,335000
[...]
2,124381	-34,346305	73,501	-0,090057	22,310000	52,440000
2,187404	6,951644	76,661	-0,072629	22,300000	52,390000
2,250329	49,597573	79,818	-0,054632	22,300000	52,405000
2,313361	91,696210	82,975	-0,036867	22,290000	52,410000
2,346338	111,611606	86,135	-0,028462	22,300000	52,415000
2,346360	109,002425	89,291	-0,029563	22,300000	52,440000
2,346376	106,996075	92,444	-0,030410	22,300000	52,415000
2,328379	94,556474	95,601	-0,035660	22,300000	52,430000
2,340368	100,160138	98,641	-0,033295	22,300000	52,430000
2,403379	147,768717	101,797	-0,013204	22,300000	52,415000
2,466382	190,399604	104,951	0,004786	22,300000	52,405000
2,514393	224,368706	108,109	0,019121	22,300000	52,375000
2,514369	221,672745	111,263	0,017983	22,310000	52,440000
2,514374	220,262283	114,419	0,017388	22,310000	52,405000
2,511429	219,572673	117,571	0,017097	22,290000	52,410000
2,448386	168,414220	120,730	-0,004492	22,310000	52,440000
2,472328	185,712335	123,768	0,002808	22,300000	52,390000
2,535281	234,981302	126,925	0,023600	22,300000	52,415000
2,598345	280,591630	130,081	0,042847	22,310000	52,415000
2,661387	323,856589	133,235	0,061105	22,310000	52,430000
2,682393	337,902196	136,390	0,067032	22,320000	52,430000
2,682319	336,178169	139,547	0,066305	22,300000	52,375000
2,682321	335,417978	142,702	0,065984	22,300000	52,375000
2,652413	313,486976	145,858	0,056729	22,300000	52,430000
2,589319	262,970694	149,018	0,035411	22,300000	52,415000
2,583364	258,220944	152,053	0,033407	22,300000	52,415000
2,646366	305,735801	155,207	0,053458	22,300000	52,405000
2,709349	353,147678	158,359	0,073466	22,290000	52,435000
2,772301	400,520216	161,515	0,093457	22,290000	52,425000
2,835336	445,548541	164,673	0,112459	22,300000	52,415000
2,850309	454,750676	167,828	0,116342	22,310000	52,405000
2,850410	453,214094	170,984	0,115694	22,300000	52,430000
2,850292	452,658703	174,137	0,115459	22,310000	52,405000
2,814310	426,189694	177,295	0,104290	22,300000	52,390000
2,751342	377,727201	180,453	0,083838	22,300000	52,415000
2,688289	330,707568	183,609	0,063996	22,300000	52,440000
2,736362	364,817832	186,667	0,078391	22,300000	52,405000
2,799365	412,669394	189,825	0,098584	22,310000	52,415000
2,862303	461,867780	192,981	0,119346	22,310000	52,415000
2,925383	506,583697	196,139	0,138216	22,300000	52,415000
2,988318	553,971277	199,293	0,158213	22,310000	52,415000
3,018370	574,805382	202,449	0,167005	22,300000	52,415000
3,018315	573,284999	205,602	0,166364	22,310000	52,430000
3,018290	572,618530	208,755	0,166083	22,310000	52,405000
2,997356	555,327357	211,912	0,158786	22,290000	52,400000
2,934324	509,012376	215,070	0,139241	22,290000	52,400000
2,871351	458,347989	218,224	0,117860	22,300000	52,430000
2,808391	411,116614	221,381	0,097929	22,290000	52,400000
2,868254	458,160545	224,421	0,117781	22,310000	52,430000
2,931273	505,203319	227,577	0,137633	22,300000	52,405000
2,994351	552,631396	230,734	0,157648	22,300000	52,405000
3,057311	601,273234	233,890	0,178175	22,310000	52,415000
3,120330	648,254684	237,045	0,198001	22,300000	52,430000
3,183292	695,219935	240,202	0,217820	22,300000	52,415000
3,186222	694,858931	243,361	0,217668	22,300000	52,415000
3,186295	693,644013	246,519	0,217155	22,300000	52,405000
3,186264	692,852581	249,673	0,216821	22,290000	52,400000
3,138325	657,135154	252,825	0,201749	22,300000	52,440000
3,075261	607,968009	255,984	0,181000	22,310000	52,415000
3,012252	560,203227	259,143	0,160843	22,310000	52,415000
2,949357	512,571507	262,295	0,140743	22,300000	52,415000
2,979307	534,259525	265,335	0,149895	22,310000	52,415000
3,042304	585,080115	268,487	0,171341	22,300000	52,405000
3,105344	630,290099	271,641	0,190420	22,300000	52,405000
3,168274	677,905621	274,800	0,210514	22,300000	52,405000
3,231358	727,645512	277,959	0,231504	22,290000	52,410000
3,294264	773,223443	281,113	0,250738	22,290000	52,410000
3,354308	818,550291	284,269	0,269866	22,300000	52,415000
3,354288	816,136654	287,424	0,268847	22,290000	52,435000
3,354355	814,929836	290,579	0,268338	22,300000	52,430000
3,354319	814,403371	293,731	0,268116	22,290000	52,435000
3,300286	771,451977	296,886	0,249990	22,310000	52,430000
3,237302	722,700218	300,040	0,229417	22,300000	52,415000
3,174319	675,859930	303,194	0,209650	22,300000	52,415000
3,111323	627,993326	306,351	0,189451	22,300000	52,415000
3,069263	596,955069	309,412	0,176353	22,300000	52,430000
3,132392	644,657370	312,567	0,196483	22,310000	52,415000
3,195351	694,200561	315,725	0,217390	22,290000	52,435000
3,258330	743,250842	318,880	0,238089	22,300000	52,440000
3,321360	790,999426	322,033	0,258239	22,300000	52,415000
3,384245	835,918987	325,188	0,277195	22,290000	52,425000
3,447290	882,844898	328,344	0,296998	22,300000	52,430000
3,510216	929,662045	331,500	0,316755	22,290000	52,435000
3,522219	938,753101	334,652	0,320591	22,310000	52,440000
3,522316	937,523141	337,809	0,320072	22,310000	52,440000
3,522257	937,020975	340,961	0,319860	22,310000	52,415000
3,483245	907,440619	344,114	0,307377	22,300000	52,430000
3,420239	856,431428	347,267	0,285852	22,290000	52,410000
3,357239	807,898354	350,422	0,265371	22,300000	52,430000
3,294313	762,218602	353,577	0,246094	22,310000	52,440000
3,231327	712,478710	356,733	0,225104	22,310000	52,440000
3,201331	689,114105	359,785	0,215244	22,290000	52,410000
3,264296	738,720935	362,936	0,236178	22,300000	52,440000
3,327288	787,347730	366,091	0,256698	22,300000	52,430000
3,390245	838,082698	369,247	0,278108	22,310000	52,415000
3,453222	882,971018	372,399	0,297051	22,300000	52,415000
3,516181	931,189370	375,553	0,317399	22,300000	52,405000
3,579182	980,420153	378,707	0,338175	22,310000	52,440000
3,642175	1027,259284	381,862	0,357941	22,300000	52,440000
3,690212	1062,570581	385,021	0,372842	22,300000	52,440000
3,690203	1060,955319	388,178	0,372161	22,300000	52,415000
3,690214	1059,865364	391,331	0,371701	22,300000	52,430000
3,687232	1059,333114	394,493	0,371476	22,310000	52,405000
3,624233	1008,957994	397,647	0,350218	22,300000	52,430000
3,561207	959,869529	400,802	0,329502	22,300000	52,415000
3,498293	909,313907	403,954	0,308168	22,300000	52,440000
3,435264	862,372954	407,113	0,288359	22,310000	52,405000
3,372253	813,777399	410,265	0,267852	22,300000	52,415000
3,309276	766,294940	413,421	0,247814	22,290000	52,425000
3,246330	721,155537	416,573	0,228765	22,300000	52,415000
3,183282	674,362689	419,730	0,209019	22,310000	52,405000
3,120384	626,606006	422,885	0,188865	22,310000	52,405000
3,057325	580,911211	426,040	0,169582	22,300000	52,415000
2,994363	534,964177	429,194	0,150192	22,300000	52,405000
2,931347	486,023817	432,353	0,129540	22,300000	52,405000
2,868403	442,758858	435,512	0,111282	22,310000	52,415000
2,805361	394,453727	438,667	0,090897	22,310000	52,440000
2,742372	350,905287	441,819	0,072520	22,300000	52,415000
2,679380	305,414137	444,975	0,053322	22,310000	52,480000
2,616398	257,304549	448,128	0,033020	22,300000	52,390000
2,553336	214,893504	451,282	0,015123	22,300000	52,415000
2,490374	167,763950	454,438	-0,004766	22,300000	52,430000
2,427399	123,588381	457,594	-0,023408	22,310000	52,455000
2,364387	78,928003	460,751	-0,042255	22,310000	52,440000
2,301413	36,783083	463,904	-0,060040	22,300000	52,430000
2,238355	-7,149502	467,060	-0,078580	22,310000	52,440000
2,175386	-51,276474	470,214	-0,097201	22,300000	52,415000
2,112391	-90,654852	473,370	-0,113819	22,300000	52,440000
2,049381	-133,701126	476,526	-0,131984	22,310000	52,430000
1,986376	-175,821747	479,682	-0,149759	22,290000	52,450000
1,923431	-217,629961	482,840	-0,167402	22,300000	52,415000
1,860406	-259,210234	485,997	-0,184949	22,290000	52,435000
1,797442	-301,151511	489,153	-0,202648	22,290000	52,435000
1,734410	-342,920385	492,307	-0,220275	22,300000	52,405000
1,671400	-381,255091	495,461	-0,236452	22,310000	52,430000
1,608400	-421,942110	498,615	-0,253622	22,310000	52,430000
1,545474	-459,314138	501,770	-0,269393	22,290000	52,425000
1,482459	-494,043432	504,922	-0,284049	22,290000	52,425000
1,419488	-528,875703	508,079	-0,298748	22,290000	52,425000
1,356475	-564,906694	511,237	-0,313953	22,310000	52,455000
1,293430	-604,175152	514,392	-0,330524	22,310000	52,455000
1,230419	-629,750907	517,547	-0,341317	22,300000	52,415000
1,167459	-661,572497	520,703	-0,354746	22,300000	52,415000
1,104384	-684,913961	523,861	-0,364596	22,300000	52,440000
1,041500	-706,758183	527,014	-0,373814	22,300000	52,440000
0,978483	-712,010099	530,166	-0,376031	22,300000	52,430000
0,915398	-712,950792	533,320	-0,376428	22,300000	52,415000
0,852422	-0,196701	536,477	-0,075646	22,300000	52,440000
0,789453	0,312407	539,631	-0,075431	22,300000	52,415000
0,726448	0,312407	542,788	-0,075431	22,290000	52,425000
0,678498	0,108764	545,189	-0,075517	22,290000	52,425000