File: Nanoindentation Datenauswertung/data/PDMS/13.09/APM-PDMS-150ms,3um,20nms,9cycles,1,5um offset,5x1
Quasi static measurement routine
Tip parameters (shape,radius, material...)
13.09.2022

Piezo position[nm]	MEMS displ.[nm]	Time[ms]	Cap [pf]	Temp [°C]	Rh [%]
eoh

X-Pos [um]	Y-Pos [um]
0,000108	0,001048

POC
2,148031
0,708095	0,509108	3,248	-0,075900	22,290000	51,530000
0,771084	0,407287	6,407	-0,075943	22,290000	51,570000
0,834118	0,556548	9,567	-0,075880	22,290000	51,555000
0,897109	0,093722	12,724	-0,076076	22,290000	51,555000
0,960136	0,321664	15,879	-0,075979	22,300000	51,550000
1,023102	0,361004	19,034	-0,075963	22,290000	51,545000
1,086103	0,219842	22,190	-0,076022	22,290000	51,530000
1,149123	0,227942	25,344	-0,076019	22,290000	51,585000
1,212091	0,470925	28,500	-0,075917	22,290000	51,555000
1,275129	0,124963	31,654	-0,076063	22,300000	51,550000
1,338029	0,149261	34,813	-0,076052	22,290000	51,595000
1,401066	0,407287	37,968	-0,075943	22,290000	51,555000
1,464061	0,282324	41,125	-0,075996	22,290000	51,585000
1,527128	0,086780	44,282	-0,076079	22,290000	51,555000
1,590067	0,078680	47,439	-0,076082	22,290000	51,545000
1,653053	0,000000	50,596	-0,076115	22,280000	51,585000
1,716037	-0,054382	53,753	-0,076138	22,290000	51,555000
1,779080	0,093722	56,910	-0,076076	22,290000	51,545000
1,842050	-0,384145	60,067	-0,076277	22,290000	51,570000
1,905006	-152,346064	63,223	-0,140405	22,290000	51,570000
1,968017	-119,513200	66,377	-0,126550	22,290000	51,555000
2,031019	-77,791765	69,535	-0,108943	22,290000	51,545000
2,094023	-39,102997	72,691	-0,092617	22,290000	51,570000
2,157031	3,135645	75,845	-0,074792	22,290000	51,555000
2,220027	44,605996	79,003	-0,057292	22,290000	51,595000
2,283051	87,126962	82,159	-0,039348	22,290000	51,570000
2,316031	109,136645	85,315	-0,030060	22,290000	51,570000
2,315979	107,051614	88,469	-0,030939	22,290000	51,545000
2,316033	105,444452	91,625	-0,031618	22,290000	51,545000
2,297981	90,520633	94,783	-0,037916	22,290000	51,555000
2,310080	99,942610	97,842	-0,033939	22,290000	51,545000
2,373030	143,223767	100,997	-0,015675	22,290000	51,585000
2,436012	187,751083	104,153	0,003116	22,290000	51,530000
2,484051	222,519716	107,304	0,017788	22,290000	51,530000
2,484043	219,620113	110,463	0,016564	22,290000	51,545000
2,484017	218,193452	113,615	0,015962	22,290000	51,555000
2,481032	214,188851	116,769	0,014272	22,290000	51,545000
2,418089	166,102405	119,924	-0,006020	22,290000	51,595000
2,442020	183,298699	122,960	0,001237	22,290000	51,570000
2,504983	230,193369	126,114	0,021026	22,290000	51,555000
2,568025	276,861254	129,267	0,040720	22,290000	51,570000
2,630991	320,024391	132,424	0,058935	22,290000	51,570000
2,652084	334,979451	135,578	0,065246	22,290000	51,595000
2,651959	332,745159	138,734	0,064303	22,300000	51,560000
2,651984	331,633220	141,894	0,063834	22,290000	51,570000
2,622019	309,710317	145,052	0,054583	22,290000	51,570000
2,559026	261,835614	148,207	0,034379	22,290000	51,585000
2,553050	254,178160	151,247	0,031148	22,290000	51,570000
2,616000	302,146586	154,401	0,051391	22,290000	51,545000
2,679092	349,338622	157,556	0,071306	22,290000	51,585000
2,741990	397,385728	160,711	0,091582	22,290000	51,570000
2,804972	439,859255	163,863	0,109505	22,280000	51,545000
2,820019	450,777316	167,019	0,114113	22,300000	51,535000
2,819991	449,123871	170,174	0,113415	22,290000	51,585000
2,819963	448,058214	173,329	0,112965	22,290000	51,545000
2,783957	422,083272	176,485	0,102004	22,290000	51,530000
2,721016	373,197293	179,640	0,081374	22,290000	51,570000
2,657981	324,107672	182,794	0,060658	22,300000	51,575000
2,706051	362,366012	185,833	0,076803	22,300000	51,560000
2,768999	410,349480	188,989	0,097052	22,290000	51,545000
2,831935	458,012441	192,144	0,117166	22,290000	51,570000
2,894924	504,554206	195,296	0,136807	22,290000	51,570000
2,957990	548,039007	198,454	0,155157	22,290000	51,585000
2,987866	570,597138	201,612	0,164677	22,280000	51,570000
2,987964	568,590788	204,764	0,163830	22,290000	51,545000
2,988026	567,963659	207,921	0,163565	22,290000	51,570000
2,966939	552,671894	211,075	0,157112	22,290000	51,555000
2,903939	501,098054	214,233	0,135348	22,290000	51,570000
2,841031	453,763700	217,392	0,115373	22,290000	51,555000
2,778000	407,950885	220,547	0,096040	22,290000	51,555000
2,837993	454,139746	223,586	0,115532	22,290000	51,555000
2,900968	499,883136	226,746	0,134835	22,280000	51,530000
2,963969	549,982875	229,901	0,155978	22,290000	51,585000
3,026979	594,495150	233,057	0,174762	22,290000	51,585000
3,089983	643,756017	236,215	0,195550	22,290000	51,595000
3,152970	689,796773	239,369	0,214979	22,290000	51,545000
3,155922	690,023558	242,524	0,215075	22,290000	51,555000
3,155928	688,213909	245,683	0,214311	22,290000	51,610000
3,155943	687,476859	248,841	0,214000	22,290000	51,570000
3,107963	651,163544	251,998	0,198676	22,300000	51,575000
3,044929	601,039507	255,154	0,177523	22,290000	51,585000
2,982020	554,136737	258,310	0,157730	22,280000	51,595000
2,919000	506,161369	261,466	0,137485	22,280000	51,555000
2,948990	530,325505	264,503	0,147682	22,290000	51,555000
3,011942	576,702968	267,659	0,167253	22,290000	51,555000
3,074994	627,328014	270,815	0,188617	22,290000	51,570000
3,137962	672,262617	273,969	0,207580	22,290000	51,585000
3,201004	719,330846	277,125	0,227442	22,290000	51,585000
3,263955	768,136987	280,281	0,248039	22,290000	51,595000
3,323893	812,711743	283,436	0,266849	22,290000	51,555000
3,323949	810,431169	286,593	0,265887	22,290000	51,570000
3,323888	809,552957	289,745	0,265516	22,290000	51,555000
3,323968	808,518541	292,901	0,265080	22,280000	51,555000
3,269899	767,706559	296,055	0,247857	22,290000	51,570000
3,206959	718,209651	299,211	0,226969	22,290000	51,570000
3,143982	670,405528	302,365	0,206796	22,290000	51,585000
3,080949	623,652020	305,520	0,187066	22,290000	51,555000
3,039026	589,415636	308,563	0,172618	22,280000	51,570000
3,101978	639,452894	311,721	0,193734	22,290000	51,595000
3,164971	687,751083	314,879	0,214116	22,290000	51,555000
3,227967	736,487800	318,034	0,234683	22,300000	51,575000
3,290900	782,582938	321,189	0,254135	22,300000	51,535000
3,353910	832,016208	324,345	0,274996	22,290000	51,570000
3,416873	876,763366	327,504	0,293879	22,300000	51,590000
3,479836	922,976525	330,660	0,313381	22,290000	51,570000
3,491864	932,351063	333,815	0,317337	22,290000	51,545000
3,491867	931,229867	336,972	0,316864	22,290000	51,585000
3,491820	930,407194	340,127	0,316517	22,290000	51,585000
3,452887	899,651261	343,281	0,303538	22,290000	51,555000
3,389864	850,098813	346,436	0,282626	22,290000	51,555000
3,326935	800,734967	349,589	0,261795	22,290000	51,585000
3,263895	754,922153	352,746	0,242462	22,290000	51,585000
3,200937	705,308381	355,905	0,221525	22,280000	51,570000
3,170959	682,146262	358,974	0,211750	22,280000	51,570000
3,233924	732,944868	362,131	0,233187	22,290000	51,610000
3,296994	781,461743	365,283	0,253662	22,290000	51,585000
3,359941	829,164044	368,438	0,273792	22,300000	51,550000
3,422892	876,661545	371,593	0,293836	22,290000	51,555000
3,485912	926,652520	374,746	0,314932	22,290000	51,555000
3,548936	974,111837	377,909	0,334960	22,290000	51,585000
3,611833	1018,905278	381,065	0,353863	22,300000	51,575000
3,659873	1055,955643	384,219	0,369498	22,300000	51,575000
3,659863	1054,199219	387,372	0,368757	22,290000	51,570000
3,659875	1053,243483	390,527	0,368354	22,290000	51,570000
3,656818	1049,677410	393,683	0,366849	22,280000	51,515000
3,593886	1001,935769	396,839	0,346702	22,290000	51,570000
3,530868	952,792922	399,996	0,325963	22,290000	51,595000
3,467858	902,480284	403,152	0,304731	22,290000	51,595000
3,404876	856,048439	406,307	0,285137	22,290000	51,595000
3,341894	807,216843	409,462	0,264530	22,290000	51,570000
3,278921	760,190268	412,618	0,244685	22,290000	51,585000
3,215921	711,805298	415,774	0,224267	22,290000	51,545000
3,152953	664,840047	418,934	0,204447	22,290000	51,545000
3,089975	618,015958	422,091	0,184688	22,290000	51,595000
3,026991	573,802207	425,245	0,166029	22,290000	51,595000
2,963942	524,869946	428,397	0,145380	22,290000	51,585000
2,900954	478,594305	431,553	0,125852	22,290000	51,570000
2,838007	435,038924	434,706	0,107471	22,290000	51,585000
2,775034	389,344130	437,859	0,088188	22,290000	51,595000
2,712060	340,403769	441,014	0,067535	22,290000	51,555000
2,649049	297,490558	444,167	0,049426	22,290000	51,585000
2,586031	251,489142	447,324	0,030013	22,290000	51,585000
2,523008	205,167219	450,479	0,010465	22,290000	51,585000
2,460026	161,375796	453,637	-0,008015	22,280000	51,585000
2,397038	115,383636	456,794	-0,027423	22,280000	51,585000
2,334028	71,788914	459,947	-0,045820	22,290000	51,595000
2,271036	28,154852	463,102	-0,064234	22,290000	51,570000
2,207999	-15,557890	466,259	-0,082681	22,290000	51,595000
2,145030	-57,216843	469,411	-0,100261	22,290000	51,585000
2,082038	-101,328773	472,565	-0,118876	22,300000	51,575000
2,019100	-142,588539	475,724	-0,136288	22,290000	51,545000
1,956086	-185,093306	478,881	-0,154225	22,290000	51,555000
1,893039	-227,379388	482,037	-0,172069	22,290000	51,610000
1,830054	-269,375046	485,193	-0,189792	22,290000	51,610000
1,767047	-307,835873	488,346	-0,206022	22,290000	51,620000
1,704090	-348,296107	491,501	-0,223096	22,280000	51,610000
1,641040	-387,673328	494,658	-0,239713	22,290000	51,595000
1,578060	-428,972434	497,815	-0,257142	22,300000	51,560000
1,515119	-466,688111	500,972	-0,273058	22,290000	51,595000
1,452122	-505,165136	504,125	-0,289295	22,290000	51,585000
1,389098	-542,254841	507,282	-0,304947	22,290000	51,595000
1,326076	-573,779065	510,437	-0,318250	22,290000	51,555000
1,263125	-605,882979	513,592	-0,331798	22,290000	51,610000
1,200083	-635,855580	516,746	-0,344446	22,290000	51,595000
1,137094	-665,600239	519,903	-0,356999	22,290000	51,595000
1,074099	-691,018633	523,056	-0,367725	22,290000	51,585000
1,011057	-713,263200	526,211	-0,377112	22,290000	51,595000
0,948092	-730,263950	529,363	-0,384287	22,290000	51,595000
0,885136	-711,155028	532,521	-0,376223	22,290000	51,555000
0,822088	0,627129	535,677	-0,075851	22,290000	51,595000
0,759071	0,572747	538,835	-0,075874	22,280000	51,545000
0,696084	0,776390	541,989	-0,075788	22,280000	51,585000
0,648088	0,737050	544,394	-0,075804	22,280000	51,585000

X-Pos [um]	Y-Pos [um]
0,000440	0,000821

POC
2,158066
0,718137	0,705809	3,245	-0,075745	22,290000	51,595000
0,781066	0,595888	6,400	-0,075791	22,300000	51,600000
0,844128	0,713909	9,559	-0,075741	22,300000	51,600000
0,907119	0,799532	12,716	-0,075705	22,290000	51,610000
0,970114	0,485967	15,872	-0,075837	22,290000	51,570000
1,033077	0,760191	19,030	-0,075722	22,290000	51,570000
1,096101	0,407287	22,184	-0,075871	22,290000	51,570000
1,159180	1,050615	25,340	-0,075599	22,290000	51,595000
1,222126	0,752092	28,494	-0,075725	22,290000	51,620000
1,285082	0,612087	31,646	-0,075784	22,290000	51,620000
1,348060	0,612087	34,804	-0,075784	22,290000	51,620000
1,411087	0,517208	37,956	-0,075824	22,290000	51,610000
1,474159	0,485967	41,108	-0,075837	22,290000	51,570000
1,537025	0,400344	44,266	-0,075874	22,290000	51,620000
1,600070	0,407287	47,420	-0,075871	22,290000	51,620000
1,663012	0,400344	50,574	-0,075874	22,290000	51,610000
1,726037	0,352905	53,733	-0,075894	22,290000	51,570000
1,789039	0,415386	56,892	-0,075867	22,300000	51,615000
1,852058	0,329763	60,045	-0,075903	22,300000	51,615000
1,915074	-151,194785	63,206	-0,139847	22,300000	51,550000
1,978007	-116,620538	66,361	-0,125256	22,290000	51,620000
2,041026	-75,353830	69,516	-0,107842	22,290000	51,620000
2,104011	-36,359597	72,678	-0,091386	22,280000	51,610000
2,167000	5,110754	75,831	-0,073886	22,290000	51,585000
2,229972	48,894078	78,988	-0,055409	22,280000	51,595000
2,292972	89,572997	82,144	-0,038243	22,290000	51,570000
2,326026	111,597721	85,298	-0,028948	22,290000	51,570000
2,325981	108,823080	88,453	-0,030119	22,290000	51,610000
2,326021	107,365179	91,606	-0,030734	22,290000	51,610000
2,308067	93,342713	94,762	-0,036652	22,290000	51,570000
2,319991	99,934510	97,795	-0,033870	22,290000	51,585000
2,382993	148,114679	100,950	-0,013538	22,280000	51,585000
2,445997	189,906694	104,102	0,004098	22,290000	51,570000
2,493994	224,479784	107,260	0,018688	22,290000	51,585000
2,493998	221,634562	110,418	0,017487	22,290000	51,620000
2,494014	220,153519	113,573	0,016862	22,300000	51,600000
2,491036	217,723684	116,727	0,015837	22,290000	51,585000
2,427999	170,577931	119,882	-0,004059	22,290000	51,555000
2,452062	185,171986	122,918	0,002100	22,290000	51,570000
2,514987	234,621455	126,075	0,022968	22,290000	51,570000
2,578000	277,833188	129,230	0,041203	22,290000	51,635000
2,641013	324,798439	132,388	0,061022	22,290000	51,620000
2,661971	337,667312	135,541	0,066453	22,290000	51,620000
2,661981	335,739642	138,696	0,065640	22,290000	51,595000
2,661993	334,673985	141,852	0,065190	22,290000	51,595000
2,631982	310,030824	145,005	0,054791	22,300000	51,590000
2,569014	262,132979	148,160	0,034578	22,300000	51,590000
2,563026	257,061565	151,199	0,032438	22,290000	51,610000
2,625950	305,289174	154,355	0,052790	22,280000	51,610000
2,689013	352,451126	157,507	0,072692	22,290000	51,595000
2,752047	398,059140	160,662	0,091938	22,290000	51,585000
2,814976	445,471018	163,816	0,111946	22,290000	51,610000
2,830020	454,054123	166,972	0,115568	22,290000	51,595000
2,829971	452,753582	170,126	0,115020	22,290000	51,570000
2,829950	451,491225	173,278	0,114487	22,290000	51,610000
2,793955	423,595555	176,434	0,102715	22,290000	51,595000
2,730961	374,796357	179,587	0,082122	22,290000	51,595000
2,667952	327,517541	182,745	0,062170	22,300000	51,575000
2,715984	363,392328	185,785	0,077309	22,300000	51,590000
2,778996	412,488892	188,945	0,098028	22,290000	51,610000
2,841954	458,365345	192,102	0,117388	22,280000	51,585000
2,904961	507,210826	195,258	0,138000	22,300000	51,590000
2,967981	553,588289	198,413	0,157572	22,290000	51,620000
2,997984	573,654102	201,570	0,166040	22,300000	51,600000
2,997942	572,281824	204,726	0,165460	22,290000	51,610000
2,997926	571,396670	207,881	0,165087	22,290000	51,595000
2,976951	556,198626	211,037	0,158673	22,300000	51,600000
2,913940	507,814814	214,194	0,138255	22,300000	51,600000
2,850977	459,344222	217,349	0,117801	22,300000	51,600000
2,787965	412,238966	220,507	0,097922	22,290000	51,570000
2,847951	455,613846	223,548	0,116227	22,290000	51,595000
2,910954	503,644753	226,702	0,136496	22,290000	51,595000
2,973943	552,601313	229,857	0,157155	22,280000	51,610000
3,036928	598,555289	233,014	0,176548	22,290000	51,595000
3,099950	645,010275	236,168	0,196152	22,290000	51,595000
3,162960	693,919394	239,322	0,216792	22,290000	51,620000
3,165877	693,904352	242,482	0,216785	22,290000	51,585000
3,165912	692,673236	245,639	0,216266	22,290000	51,610000
3,165977	691,795024	248,794	0,215895	22,290000	51,555000
3,117969	655,568489	251,947	0,200607	22,290000	51,595000
3,054921	605,115845	255,102	0,179316	22,290000	51,620000
2,991957	558,346138	258,257	0,159580	22,290000	51,610000
2,928929	511,883053	261,417	0,139972	22,290000	51,555000
2,958936	533,162628	264,454	0,148952	22,290000	51,610000
3,021994	583,043682	267,612	0,170002	22,290000	51,635000
3,084941	630,204476	270,767	0,189904	22,290000	51,610000
3,147947	679,246658	273,924	0,210600	22,290000	51,610000
3,210920	726,612254	277,080	0,230588	22,300000	51,615000
3,273883	770,817906	280,237	0,249243	22,300000	51,615000
3,333910	817,280991	283,392	0,268850	22,290000	51,610000
3,333898	815,070997	286,546	0,267917	22,290000	51,610000
3,333852	813,989142	289,701	0,267461	22,290000	51,635000
3,333891	813,166469	292,853	0,267114	22,290000	51,620000
3,279919	772,330189	296,007	0,249881	22,290000	51,595000
3,216935	721,258516	299,162	0,228329	22,290000	51,585000
3,153919	674,559390	302,318	0,208622	22,280000	51,595000
3,090933	627,547856	305,473	0,188783	22,290000	51,610000
3,048972	592,879887	308,537	0,174153	22,290000	51,610000
3,111984	643,090705	311,695	0,195342	22,290000	51,610000
3,174892	693,911295	314,855	0,216788	22,290000	51,610000
3,237893	741,904019	318,014	0,237041	22,290000	51,635000
3,300906	787,764274	321,167	0,256394	22,290000	51,645000
3,363916	834,321081	324,324	0,276041	22,290000	51,610000
3,426894	882,289507	327,480	0,296284	22,290000	51,610000
3,489865	929,105497	330,636	0,316040	22,290000	51,620000
3,501868	937,069572	333,791	0,319401	22,290000	51,610000
3,501925	935,846555	336,947	0,318885	22,290000	51,635000
3,501879	934,929003	340,103	0,318498	22,290000	51,610000
3,462874	906,085697	343,262	0,306326	22,290000	51,610000
3,399961	856,792432	346,418	0,285524	22,300000	51,560000
3,336957	808,173736	349,574	0,265007	22,290000	51,610000
3,273924	760,072247	352,727	0,244708	22,290000	51,620000
3,210918	712,589788	355,880	0,224670	22,300000	51,640000
3,180982	688,746159	358,920	0,214608	22,290000	51,610000
3,243979	737,075589	362,079	0,235003	22,290000	51,595000
3,306954	788,030398	365,235	0,256506	22,290000	51,620000
3,369883	834,235458	368,393	0,276005	22,290000	51,610000
3,432963	881,693619	371,550	0,296032	22,290000	51,610000
3,495850	931,732033	374,707	0,317148	22,300000	51,615000
3,558932	976,604154	377,869	0,336084	22,300000	51,615000
3,621825	1026,014283	381,023	0,356936	22,290000	51,610000
3,669819	1061,018957	384,185	0,371708	22,290000	51,595000
3,669855	1059,232450	387,342	0,370954	22,290000	51,595000
3,669864	1058,259358	390,498	0,370543	22,310000	51,640000
3,666831	1054,960567	393,651	0,369151	22,290000	51,620000
3,603836	1007,211983	396,807	0,349001	22,290000	51,620000
[...]
2,110093	-35,740568	72,721	-0,090817	22,290000	51,685000
2,173128	6,035249	75,874	-0,073188	22,300000	51,680000
2,236193	49,434427	79,031	-0,054874	22,290000	51,685000
2,299158	92,182178	82,183	-0,036834	22,300000	51,705000
2,332139	112,372954	85,339	-0,028313	22,300000	51,665000
2,332176	109,379628	88,498	-0,029577	22,290000	51,675000
2,332120	107,897429	91,654	-0,030202	22,290000	51,700000
2,314203	95,199802	94,807	-0,035561	22,290000	51,685000
2,326152	101,070748	97,844	-0,033083	22,290000	51,675000
2,389172	146,084031	101,001	-0,014087	22,290000	51,700000
2,452131	191,285915	104,158	0,004988	22,290000	51,700000
2,500131	224,824589	107,319	0,019141	22,300000	51,690000
2,500170	222,151770	110,472	0,018013	22,300000	51,690000
2,500167	221,187935	113,626	0,017606	22,290000	51,645000
2,497092	219,777473	116,779	0,017011	22,290000	51,700000
2,434186	171,063898	119,935	-0,003546	22,290000	51,700000
2,458111	188,299532	122,981	0,003728	22,290000	51,700000
2,521137	233,688861	126,131	0,022882	22,290000	51,685000
2,584178	279,384812	129,283	0,042166	22,290000	51,685000
2,647149	323,033916	132,437	0,060585	22,280000	51,700000
2,668120	338,381220	135,593	0,067062	22,290000	51,715000
2,668151	336,688435	138,752	0,066348	22,290000	51,660000
2,668111	335,269874	141,908	0,065749	22,300000	51,705000
2,638126	311,206402	145,061	0,055594	22,290000	51,715000
2,575170	265,895753	148,214	0,036473	22,290000	51,715000
2,569149	258,441943	151,256	0,033328	22,290000	51,715000
2,632108	307,334864	154,412	0,053960	22,300000	51,690000
2,695143	353,469342	157,569	0,073429	22,300000	51,705000
2,758148	401,217926	160,724	0,093579	22,290000	51,715000
2,821157	446,795857	163,880	0,112813	22,300000	51,690000
2,836123	455,410203	167,034	0,116448	22,300000	51,705000
2,836156	454,070322	170,191	0,115883	22,300000	51,680000
2,836145	453,144670	173,344	0,115492	22,290000	51,700000
2,800131	425,986050	176,499	0,104031	22,290000	51,660000
2,737111	377,869520	179,654	0,083726	22,290000	51,675000
2,674173	328,709318	182,807	0,062980	22,300000	51,680000
2,722170	366,503675	185,846	0,078930	22,280000	51,660000
2,785088	412,999158	189,002	0,098551	22,300000	51,690000
2,848082	460,974526	192,158	0,118796	22,290000	51,675000
2,911155	506,591797	195,311	0,138047	22,290000	51,675000
2,974063	553,949293	198,464	0,158032	22,300000	51,720000
3,004064	575,739133	201,616	0,167227	22,300000	51,720000
3,004069	574,358755	204,773	0,166645	22,290000	51,715000
3,004071	573,183177	207,928	0,166148	22,290000	51,700000
2,983042	555,767041	211,084	0,158799	22,290000	51,700000
2,920090	509,453218	214,239	0,139254	22,290000	51,685000
2,857079	459,697127	217,393	0,118257	22,290000	51,700000
2,794136	412,623112	220,551	0,098392	22,290000	51,700000
2,854138	458,427827	223,589	0,117722	22,290000	51,725000
2,917147	507,862254	226,743	0,138583	22,290000	51,685000
2,980081	554,858746	229,904	0,158416	22,290000	51,715000
3,043118	600,231876	233,060	0,177563	22,290000	51,700000
3,106091	647,518791	236,216	0,197518	22,290000	51,675000
3,169050	693,402186	239,369	0,216881	22,280000	51,685000
3,172085	695,707059	242,571	0,217854	22,290000	51,715000
3,172103	694,656444	245,728	0,217410	22,290000	51,685000
3,172152	693,551448	248,884	0,216944	22,290000	51,715000
3,124105	657,982126	252,041	0,201934	22,290000	51,700000
3,061047	609,159786	255,198	0,181331	22,290000	51,715000
2,998053	558,659703	258,357	0,160020	22,290000	51,685000
2,935098	513,873204	261,513	0,141120	22,290000	51,685000
2,965133	534,464325	264,551	0,149809	22,290000	51,700000
3,028126	583,756433	267,706	0,170610	22,290000	51,700000
3,091051	633,433844	270,859	0,191574	22,310000	51,720000
3,154085	681,111846	274,015	0,211694	22,300000	51,680000
3,217084	726,274391	277,167	0,230753	22,300000	51,680000
3,280069	773,255841	280,321	0,250579	22,280000	51,700000
3,340112	819,044357	283,476	0,269902	22,290000	51,685000
3,340059	817,187269	286,635	0,269118	22,290000	51,700000
3,340044	815,658786	289,789	0,268473	22,290000	51,685000
3,340056	814,890495	292,943	0,268149	22,300000	51,705000
3,286090	773,960493	296,102	0,250876	22,290000	51,715000
3,223089	725,451718	299,261	0,230406	22,290000	51,715000
3,160107	677,412711	302,416	0,210133	22,290000	51,685000
3,097123	629,922153	305,575	0,190092	22,300000	51,705000
3,055118	597,058048	308,623	0,176224	22,300000	51,705000
3,118086	646,210151	311,779	0,196966	22,300000	51,705000
3,181087	695,055632	314,934	0,217579	22,300000	51,705000
3,244066	742,217584	318,093	0,237481	22,290000	51,675000
3,307008	790,452135	321,247	0,257836	22,290000	51,725000
3,370043	839,055789	324,400	0,278347	22,280000	51,725000
3,433052	883,637487	327,557	0,297160	22,280000	51,725000
3,496076	930,517115	330,711	0,316943	22,290000	51,675000
3,508055	939,882396	333,864	0,320896	22,290000	51,715000
3,508046	938,675578	337,020	0,320386	22,290000	51,685000
3,508002	937,837863	340,176	0,320033	22,290000	51,725000
3,469071	908,805956	343,332	0,307781	22,290000	51,700000
3,406047	859,786915	346,489	0,287095	22,290000	51,715000
3,343067	811,002758	349,642	0,266508	22,290000	51,685000
3,280077	762,728867	352,797	0,246137	22,290000	51,700000
3,217068	715,270707	355,951	0,226109	22,310000	51,705000
3,187009	691,756841	358,986	0,216187	22,290000	51,700000
3,250064	741,033907	362,144	0,236981	22,300000	51,705000
3,313070	791,330347	365,298	0,258207	22,290000	51,700000
3,376089	836,609755	368,452	0,277314	22,290000	51,700000
3,439050	884,586280	371,610	0,297561	22,290000	51,715000
3,502035	931,935676	374,770	0,317542	22,290000	51,685000
3,565079	979,574339	377,926	0,337646	22,290000	51,715000
3,628025	1028,358496	381,084	0,358232	22,290000	51,715000
3,675988	1063,338872	384,239	0,372994	22,290000	51,685000
3,676054	1061,795348	387,399	0,372343	22,290000	51,685000
3,676063	1060,885895	390,553	0,371959	22,290000	51,700000
3,673037	1057,640329	393,709	0,370589	22,290000	51,700000
3,609982	1009,906787	396,861	0,350446	22,280000	51,685000
3,547053	958,326005	400,016	0,328679	22,300000	51,690000
3,484043	912,473850	403,171	0,309329	22,290000	51,675000
3,421064	864,356163	406,327	0,289023	22,300000	51,705000
3,358075	815,133479	409,480	0,268251	22,300000	51,705000
3,295085	766,828347	412,636	0,247867	22,290000	51,715000
3,232003	721,030574	415,793	0,228540	22,290000	51,715000
3,169134	672,866604	418,948	0,208215	22,300000	51,730000
3,106064	628,347388	422,102	0,189428	22,290000	51,740000
3,043096	581,460817	425,256	0,169642	22,300000	51,705000
2,980108	534,777890	428,412	0,149941	22,290000	51,715000
2,917144	488,055622	431,567	0,130225	22,290000	51,725000
2,854109	442,477692	434,724	0,110991	22,300000	51,690000
2,791155	395,174578	437,880	0,091029	22,290000	51,740000
2,728205	349,745909	441,039	0,071858	22,290000	51,685000
2,665121	303,110421	444,192	0,052178	22,290000	51,685000
2,602139	258,080939	447,343	0,033175	22,290000	51,700000
2,539193	215,231367	450,501	0,015093	22,300000	51,720000
2,476139	168,351738	453,660	-0,004690	22,300000	51,720000
2,413156	125,400344	456,816	-0,022816	22,290000	51,715000
2,350194	80,175318	459,974	-0,041901	22,290000	51,685000
2,287154	35,027816	463,129	-0,060953	22,290000	51,685000
2,224126	-6,583697	466,286	-0,078513	22,290000	51,700000
2,161159	-50,828690	469,440	-0,097185	22,290000	51,700000
2,098142	-91,492567	472,598	-0,114345	22,300000	51,720000
2,035205	-134,412720	475,751	-0,132457	22,290000	51,725000
1,972181	-179,552123	478,909	-0,151506	22,290000	51,715000
1,909174	-219,854997	482,066	-0,168514	22,290000	51,685000
1,846241	-261,427170	485,219	-0,186057	22,280000	51,685000
1,783206	-302,670736	488,378	-0,203462	22,290000	51,685000
1,720171	-341,179003	491,531	-0,219712	22,290000	51,685000
1,657186	-380,643004	494,686	-0,236366	22,290000	51,715000
1,594243	-419,159369	497,844	-0,252620	22,290000	51,685000
1,531241	-459,007516	501,001	-0,269436	22,300000	51,745000
1,468242	-496,519550	504,157	-0,285266	22,300000	51,690000
1,405225	-530,654112	507,315	-0,299671	22,290000	51,700000
1,342232	-568,903195	510,468	-0,315812	22,290000	51,715000
1,279218	-600,561639	513,620	-0,329172	22,290000	51,715000
1,216205	-632,132146	516,779	-0,342495	22,290000	51,700000
1,153238	-660,341380	519,934	-0,354399	22,290000	51,715000
1,090245	-686,927253	523,092	-0,365618	22,290000	51,685000
1,027205	-705,174161	526,248	-0,373318	22,290000	51,725000
0,964225	-730,726775	529,403	-0,384102	22,290000	51,725000
0,901260	-727,246325	532,558	-0,382633	22,290000	51,715000
0,838262	0,023141	535,716	-0,075725	22,290000	51,715000
0,775187	0,203643	538,872	-0,075649	22,290000	51,700000
0,712233	0,282324	542,028	-0,075616	22,290000	51,715000
0,664201	0,259182	544,432	-0,075625	22,290000	51,715000