File: Nanoindentation Datenauswertung/data/PDMS/13.09/APM-PDMS-150ms,3um,20nms,9cycles,1,5um offset,9x1-5
Quasi static measurement routine
Tip parameters (shape,radius, material...)
13.09.2022

Piezo position[nm]	MEMS displ.[nm]	Time[ms]	Cap [pf]	Temp [°C]	Rh [%]
eoh

X-Pos [um]	Y-Pos [um]
0,000153	0,001243

POC
2,179982
0,758126	-0,062481	4,967	-0,075470	22,300000	52,575000
0,839135	-0,101822	9,025	-0,075487	22,300000	52,600000
0,920091	-0,031241	13,083	-0,075457	22,310000	52,575000
1,001117	-0,015042	17,145	-0,075450	22,300000	52,575000
1,082124	-0,008099	21,205	-0,075447	22,300000	52,575000
1,163063	0,094879	25,262	-0,075404	22,300000	52,600000
1,244089	-0,203643	29,321	-0,075530	22,300000	52,600000
1,325065	-0,180502	33,379	-0,075520	22,310000	52,575000
1,406109	-0,054382	37,439	-0,075467	22,300000	52,575000
1,487055	-0,211743	41,498	-0,075533	22,300000	52,545000
1,568074	-0,031241	45,550	-0,075457	22,320000	52,560000
1,649086	-0,195544	49,607	-0,075526	22,300000	52,585000
1,730099	0,016199	53,663	-0,075437	22,300000	52,575000
1,811047	-222,621538	57,717	-0,169390	22,310000	52,560000
1,892036	-185,116447	61,775	-0,153563	22,310000	52,575000
1,973018	-133,739309	65,832	-0,131882	22,300000	52,585000
2,054003	-81,812565	69,891	-0,109969	22,310000	52,575000
2,135028	-30,849656	73,948	-0,088462	22,310000	52,560000
2,216010	25,097888	78,002	-0,064853	22,310000	52,600000
2,297041	77,070914	82,057	-0,042920	22,310000	52,560000
2,348004	111,346638	86,112	-0,028456	22,300000	52,585000
2,348045	108,422736	90,169	-0,029689	22,300000	52,560000
2,347975	106,675568	94,223	-0,030427	22,300000	52,575000
2,275996	52,819998	98,286	-0,053154	22,310000	52,625000
2,329944	93,498917	102,233	-0,035987	22,300000	52,585000
2,411054	151,986217	106,289	-0,011306	22,300000	52,575000
2,491990	206,264116	110,348	0,011600	22,310000	52,585000
2,516016	221,885645	114,402	0,018192	22,310000	52,600000
2,515980	219,667552	118,458	0,017256	22,310000	52,585000
2,498001	204,492650	122,522	0,010852	22,300000	52,615000
2,417045	145,151437	126,577	-0,014190	22,310000	52,560000
2,357035	100,476016	130,510	-0,033043	22,300000	52,575000
2,437989	162,285249	134,565	-0,006959	22,310000	52,600000
2,519018	221,697043	138,622	0,018112	22,310000	52,575000
2,600030	280,066323	142,683	0,042744	22,300000	52,575000
2,680996	334,908870	146,745	0,065888	22,300000	52,585000
2,684051	335,778982	150,801	0,066255	22,300000	52,585000
2,684009	334,399761	154,857	0,065673	22,310000	52,560000
2,645005	303,658870	158,913	0,052700	22,300000	52,545000
2,563971	244,137154	162,969	0,027582	22,310000	52,575000
2,483011	182,116179	167,025	0,001409	22,310000	52,600000
2,459025	165,319072	170,967	-0,005679	22,300000	52,585000
2,539965	227,293765	175,023	0,020474	22,300000	52,585000
2,621018	287,309547	179,078	0,045801	22,310000	52,585000
2,702032	346,094213	183,134	0,070608	22,300000	52,575000
2,782999	404,095546	187,193	0,095084	22,310000	52,575000
2,851948	455,167219	191,255	0,116637	22,310000	52,575000
2,851961	452,721184	195,314	0,115604	22,300000	52,600000
2,852061	451,036498	199,370	0,114894	22,310000	52,575000
2,797976	408,116345	203,423	0,096781	22,300000	52,560000
2,717022	346,078014	207,480	0,070601	22,300000	52,615000
2,636025	286,572497	211,538	0,045490	22,300000	52,575000
2,555026	227,443026	215,596	0,020537	22,300000	52,585000
2,555000	228,822247	219,532	0,021119	22,300000	52,585000
2,636006	291,831356	223,593	0,047709	22,290000	52,580000
2,716964	351,760358	227,654	0,072999	22,300000	52,575000
2,798037	413,273382	231,713	0,098958	22,310000	52,575000
2,878944	471,979367	235,766	0,123731	22,310000	52,600000
2,959970	530,082522	239,826	0,148251	22,300000	52,625000
3,020003	573,818406	243,883	0,166708	22,300000	52,585000
3,019916	571,820155	247,975	0,165864	22,310000	52,575000
3,019971	570,605237	252,028	0,165352	22,300000	52,585000
2,957005	523,044098	256,084	0,145281	22,300000	52,600000
2,875933	460,888903	260,139	0,119051	22,300000	52,560000
2,794963	400,395253	264,199	0,093523	22,310000	52,585000
2,713993	338,075755	268,253	0,067224	22,310000	52,600000
2,633017	279,455393	272,312	0,042486	22,290000	52,595000
2,644991	289,706985	276,250	0,046812	22,320000	52,585000
2,725996	352,912794	280,305	0,073485	22,300000	52,625000
2,807050	412,372029	284,363	0,098577	22,300000	52,615000
2,888030	473,750833	288,420	0,124479	22,310000	52,585000
2,968958	533,820997	292,477	0,149829	22,310000	52,600000
3,049951	592,293256	296,537	0,174504	22,310000	52,600000
3,130946	651,147345	300,592	0,199340	22,300000	52,545000
3,187927	694,068656	304,652	0,217453	22,300000	52,585000
3,187961	692,289090	308,707	0,216702	22,310000	52,640000
3,187889	690,957309	312,761	0,216140	22,300000	52,600000
3,122018	639,265449	316,821	0,194326	22,300000	52,625000
3,040994	576,647429	320,875	0,167901	22,300000	52,560000
2,960013	515,574089	324,930	0,142128	22,310000	52,625000
2,879010	455,300281	328,987	0,116693	22,310000	52,600000
2,797983	397,786073	333,045	0,092422	22,300000	52,585000
2,716972	338,584864	337,101	0,067439	22,300000	52,615000
2,729057	346,736384	341,061	0,070879	22,290000	52,570000
2,810006	411,556298	345,120	0,098233	22,290000	52,570000
2,891001	472,810140	349,175	0,124082	22,300000	52,600000
2,972022	531,977794	353,232	0,149051	22,300000	52,615000
3,052969	593,554456	357,287	0,175036	22,310000	52,585000
3,133982	653,499658	361,343	0,200333	22,310000	52,560000
3,215021	713,208818	365,401	0,225530	22,300000	52,560000
3,295963	770,566823	369,456	0,249735	22,300000	52,585000
3,355928	815,808048	373,510	0,268827	22,300000	52,585000
3,355893	813,809797	377,563	0,267984	22,310000	52,625000
3,355924	812,821664	381,619	0,267567	22,300000	52,545000
3,292923	764,971259	385,675	0,247374	22,300000	52,600000
3,211939	700,048365	389,730	0,219977	22,310000	52,585000
3,130950	638,802623	393,786	0,194131	22,310000	52,625000
3,049945	577,924828	397,845	0,168440	22,300000	52,600000
2,969038	520,363179	401,900	0,144149	22,300000	52,600000
2,888027	460,332355	405,958	0,118816	22,310000	52,600000
2,806988	400,999241	410,018	0,093778	22,300000	52,585000
2,806991	401,861254	413,963	0,094142	22,300000	52,545000
2,888047	465,200126	418,019	0,120871	22,280000	52,580000
2,968935	524,134053	422,073	0,145741	22,300000	52,585000
3,049998	585,104414	426,129	0,171470	22,300000	52,585000
3,130944	645,599221	430,183	0,196999	22,300000	52,600000
3,211940	708,490308	434,240	0,223539	22,300000	52,600000
3,292926	766,813305	438,292	0,248151	22,310000	52,615000
3,373937	828,364512	442,345	0,274126	22,300000	52,650000
3,454948	887,259099	446,400	0,298979	22,310000	52,585000
3,523879	938,527473	450,454	0,320615	22,320000	52,615000
3,523903	936,002758	454,509	0,319549	22,290000	52,595000
3,523893	934,662878	458,567	0,318984	22,300000	52,575000
3,469940	893,678493	462,621	0,301688	22,310000	52,615000
3,388945	828,615595	466,677	0,274232	22,300000	52,600000
3,307947	768,529232	470,733	0,248875	22,310000	52,615000
3,226979	708,035582	474,792	0,223347	22,310000	52,625000
3,145955	647,659953	478,848	0,197869	22,300000	52,615000
3,064970	585,974526	482,904	0,171837	22,310000	52,585000
2,983988	527,605247	486,959	0,147206	22,310000	52,625000
2,902998	466,907953	491,019	0,121591	22,300000	52,600000
2,879014	451,020300	494,969	0,114887	22,300000	52,575000
2,959968	514,680835	499,027	0,141751	22,290000	52,595000
3,040973	574,084531	503,083	0,166820	22,310000	52,615000
3,121947	637,525224	507,145	0,193592	22,310000	52,615000
3,202940	698,426161	511,202	0,219292	22,310000	52,625000
3,283942	758,763607	515,259	0,244754	22,300000	52,625000
3,364927	818,833771	519,318	0,270104	22,310000	52,600000
3,445913	879,859671	523,375	0,295857	22,320000	52,600000
3,526885	939,499408	527,432	0,321025	22,300000	52,575000
3,607875	999,960660	531,489	0,346540	22,290000	52,610000
3,688894	1057,679669	535,543	0,370897	22,300000	52,625000
3,691847	1059,208151	539,597	0,371542	22,300000	52,625000
3,691839	1058,204976	543,653	0,371119	22,300000	52,625000
3,652831	1026,477109	547,709	0,357729	22,310000	52,615000
3,571900	965,395670	551,772	0,331953	22,310000	52,640000
3,490896	903,201135	555,830	0,305707	22,300000	52,600000
3,409906	839,039590	559,883	0,278631	22,290000	52,610000
3,328946	778,420977	563,940	0,253050	22,300000	52,615000
3,247927	720,207901	567,997	0,228484	22,300000	52,535000
3,166988	658,444951	572,053	0,202420	22,310000	52,615000
3,085963	599,244900	576,114	0,177437	22,300000	52,615000
3,004991	539,691943	580,170	0,152306	22,320000	52,600000
2,924007	477,709151	584,230	0,126149	22,300000	52,575000
2,842963	421,205060	588,290	0,102305	22,310000	52,585000
2,762013	359,919977	592,344	0,076442	22,310000	52,585000
2,680973	302,028566	596,400	0,052012	22,300000	52,615000
2,599989	244,952884	600,455	0,027926	22,320000	52,600000
2,519000	186,621788	604,511	0,003311	22,300000	52,600000
2,438039	128,183085	608,568	-0,021351	22,310000	52,615000
2,357023	70,933844	612,625	-0,045510	22,310000	52,615000
2,276059	14,132387	616,681	-0,069480	22,310000	52,575000
2,195011	-40,953144	620,741	-0,092726	22,300000	52,600000
2,114016	-95,270383	624,796	-0,115648	22,300000	52,615000
2,033045	-150,339714	628,848	-0,138887	22,300000	52,600000
1,952032	-203,880563	632,905	-0,161481	22,310000	52,625000
1,871086	-257,962918	636,957	-0,184304	22,300000	52,600000
1,790073	-312,248917	641,010	-0,207213	22,310000	52,600000
1,709091	-366,096388	645,067	-0,229937	22,310000	52,585000
1,628042	-415,459077	649,121	-0,250768	22,300000	52,585000
1,547067	-467,017874	653,178	-0,272525	22,300000	52,615000
1,466091	-511,686352	657,236	-0,291375	22,310000	52,600000
1,385068	-559,301874	661,291	-0,311469	22,300000	52,585000
1,304085	-603,484384	665,349	-0,330114	22,300000	52,600000
1,223089	-642,642921	669,401	-0,346639	22,310000	52,585000
1,142089	-676,949885	673,457	-0,361117	22,300000	52,625000
1,061031	-711,366771	677,511	-0,375641	22,300000	52,575000
0,980053	-728,367521	681,567	-0,382815	22,300000	52,625000
0,899091	-735,059982	685,623	-0,385639	22,310000	52,615000
0,818124	-0,328606	689,681	-0,075583	22,300000	52,625000
0,737049	-0,251083	693,741	-0,075550	22,300000	52,615000
0,680059	-0,108764	696,593	-0,075490	22,310000	52,585000

X-Pos [um]	Y-Pos [um]
0,000175	0,000340

POC
2,186103
0,764172	-0,477868	4,963	-0,075596	22,300000	52,585000
0,845164	-0,126120	9,019	-0,075447	22,300000	52,585000
0,926176	-0,164303	13,075	-0,075463	22,300000	52,625000
1,007187	-0,086780	17,134	-0,075431	22,310000	52,615000
1,088212	-0,172403	21,194	-0,075467	22,310000	52,615000
1,169148	0,226785	25,251	-0,075298	22,300000	52,650000
1,250178	-0,031241	29,309	-0,075407	22,290000	52,580000
1,331222	0,008099	33,366	-0,075391	22,310000	52,615000
1,412026	-0,164303	37,419	-0,075463	22,310000	52,640000
1,493153	-0,195544	41,476	-0,075477	22,300000	52,625000
1,574173	-0,149261	45,534	-0,075457	22,300000	52,625000
1,655210	0,054382	49,591	-0,075371	22,300000	52,585000
1,736164	0,000000	53,648	-0,075394	22,300000	52,625000
1,817116	-228,492484	57,706	-0,171818	22,310000	52,640000
1,898155	-184,467334	61,762	-0,153239	22,300000	52,600000
1,979133	-135,558214	65,819	-0,132600	22,300000	52,615000
2,060155	-82,227951	69,876	-0,110094	22,310000	52,600000
2,141128	-28,076172	73,938	-0,087242	22,310000	52,625000
2,222105	26,273465	77,993	-0,064307	22,310000	52,625000
2,303128	80,817489	82,049	-0,041289	22,300000	52,625000
2,354072	112,717760	86,107	-0,027827	22,310000	52,585000
2,354098	109,683936	90,162	-0,029107	22,300000	52,600000
2,354096	108,101072	94,217	-0,029775	22,300000	52,615000
2,282148	55,304215	98,272	-0,052056	22,310000	52,585000
2,336084	95,152362	102,214	-0,035240	22,310000	52,600000
2,417118	151,061722	106,270	-0,011646	22,320000	52,600000
2,498098	209,061898	110,326	0,012830	22,300000	52,625000
2,522136	223,279908	114,387	0,018830	22,300000	52,615000
2,522136	221,414720	118,443	0,018043	22,310000	52,600000
2,504090	206,068572	122,502	0,011567	22,310000	52,615000
2,423121	145,990308	126,568	-0,013786	22,310000	52,625000
2,363088	100,223776	130,511	-0,033100	22,320000	52,640000
2,444143	162,779315	134,568	-0,006701	22,300000	52,600000
2,525060	222,135571	138,624	0,018347	22,310000	52,625000
2,606052	280,560390	142,680	0,043002	22,310000	52,615000
2,687079	336,727775	146,731	0,066705	22,310000	52,640000
2,690024	337,550448	150,787	0,067052	22,300000	52,575000
2,690101	336,312389	154,844	0,066530	22,310000	52,625000
2,651080	307,405445	158,900	0,054331	22,300000	52,640000
2,570092	244,263274	162,961	0,027685	22,310000	52,600000
2,489091	186,449385	167,022	0,003288	22,310000	52,615000
2,465110	170,216926	170,959	-0,003563	22,290000	52,580000
2,546122	232,043515	175,014	0,022528	22,310000	52,625000
2,627091	290,083031	179,073	0,047021	22,310000	52,640000
2,708141	350,459817	183,132	0,072500	22,290000	52,610000
2,789095	408,115188	187,187	0,096831	22,300000	52,615000
2,858134	457,518374	191,243	0,117679	22,310000	52,600000
2,858049	454,916136	195,302	0,116581	22,310000	52,640000
2,858111	453,716260	199,356	0,116074	22,310000	52,600000
2,804130	411,219592	203,416	0,098141	22,310000	52,600000
2,723099	350,028232	207,475	0,072318	22,300000	52,575000
2,642084	289,582022	211,536	0,046810	22,310000	52,615000
2,561083	229,794181	215,594	0,021579	22,310000	52,585000
2,561141	232,301540	219,536	0,022637	22,300000	52,625000
2,642104	294,182511	223,594	0,048751	22,300000	52,615000
2,723104	354,958485	227,654	0,074398	22,300000	52,625000
2,804069	416,486550	231,712	0,100363	22,320000	52,640000
2,885116	473,726535	235,773	0,124519	22,300000	52,615000
2,966087	532,174495	239,836	0,149184	22,300000	52,585000
3,026106	577,353238	243,893	0,168249	22,300000	52,585000
3,026079	575,095805	247,950	0,167296	22,310000	52,625000
3,026135	574,343713	252,010	0,166979	22,300000	52,625000
2,963120	526,664553	256,068	0,146858	22,300000	52,600000
2,882091	463,216917	260,131	0,120083	22,310000	52,600000
2,801155	403,396679	264,189	0,094839	22,310000	52,640000
2,720113	344,173486	268,250	0,069847	22,290000	52,595000
2,639097	284,698052	272,307	0,044749	22,310000	52,600000
2,651114	293,258016	276,248	0,048361	22,300000	52,625000
2,732118	355,326431	280,309	0,074554	22,310000	52,600000
2,813108	416,525890	284,363	0,100380	22,300000	52,625000
2,894120	478,789849	288,419	0,126655	22,300000	52,600000
2,975079	536,360754	292,477	0,150950	22,300000	52,600000
3,056112	596,563981	296,532	0,176356	22,310000	52,615000
3,137078	656,539266	300,589	0,201666	22,300000	52,585000
3,194095	698,504841	304,645	0,219375	22,300000	52,625000
3,194051	696,372371	308,706	0,218475	22,300000	52,625000
3,194054	695,259275	312,764	0,218005	22,300000	52,600000
3,128025	642,894004	316,824	0,195907	22,300000	52,600000
3,047066	582,314731	320,881	0,170343	22,300000	52,640000
2,966046	522,103405	324,937	0,144934	22,300000	52,600000
2,885108	461,531074	328,993	0,119372	22,300000	52,585000
2,804047	401,390329	333,050	0,093993	22,310000	52,615000
2,723107	342,942369	337,112	0,069328	22,300000	52,640000
2,735104	350,944628	341,051	0,072705	22,310000	52,615000
2,816083	412,904278	345,108	0,098852	22,300000	52,615000
2,897093	476,877222	349,164	0,125848	22,300000	52,615000
2,978015	537,520133	353,222	0,151439	22,300000	52,585000
3,059112	594,736976	357,281	0,175585	22,310000	52,615000
3,140082	655,223684	361,337	0,201110	22,310000	52,615000
3,221086	714,932844	365,396	0,226308	22,310000	52,615000
3,302011	774,469602	369,451	0,251432	22,300000	52,640000
3,362036	819,727025	373,506	0,270531	22,300000	52,600000
3,361993	817,688278	377,561	0,269670	22,300000	52,615000
3,361969	816,803123	381,618	0,269297	22,310000	52,615000
3,298993	766,522882	385,676	0,248079	22,300000	52,615000
3,218021	704,500750	389,732	0,221905	22,310000	52,625000
3,137084	644,140162	393,789	0,196433	22,310000	52,640000
3,056086	582,454736	397,843	0,170402	22,300000	52,575000
2,975102	524,219676	401,900	0,145827	22,300000	52,625000
2,894117	464,336956	405,954	0,120556	22,300000	52,575000
2,813112	402,432844	410,011	0,094433	22,300000	52,625000
2,813085	404,854580	413,983	0,095455	22,300000	52,615000
2,894109	466,978534	418,040	0,121671	22,300000	52,615000
2,975066	530,379887	422,100	0,148426	22,300000	52,575000
3,056080	588,984051	426,163	0,173157	22,300000	52,585000
3,137120	649,446460	430,224	0,198672	22,290000	52,610000
3,218009	712,409286	434,281	0,225243	22,310000	52,625000
3,299044	772,110347	438,336	0,250437	22,300000	52,615000
3,379944	829,625713	442,394	0,274708	22,310000	52,625000
3,460922	889,828940	446,452	0,300114	22,310000	52,625000
3,529939	942,249750	450,506	0,322235	22,300000	52,625000
3,529918	940,110338	454,568	0,321333	22,310000	52,625000
3,529918	938,621196	458,624	0,320704	22,310000	52,625000
3,475955	895,120196	462,682	0,302347	22,300000	52,600000
3,395004	835,065073	466,736	0,277003	22,310000	52,625000
3,314005	773,239642	470,792	0,250913	22,300000	52,625000
3,233016	709,790849	474,844	0,224138	22,310000	52,625000
3,152049	651,946877	478,896	0,199728	22,300000	52,640000
3,071048	588,906528	482,951	0,173125	22,290000	52,620000
2,990054	531,602905	487,013	0,148942	22,320000	52,600000
2,909123	470,191702	491,073	0,123027	22,300000	52,625000
2,885089	453,215251	495,053	0,115863	22,310000	52,615000
2,966064	516,631646	499,108	0,142625	22,310000	52,640000
3,046992	577,932927	503,163	0,168494	22,310000	52,625000
3,128047	638,850063	507,221	0,194201	22,310000	52,615000
3,209068	701,921653	511,279	0,220817	22,300000	52,615000
3,290052	762,384062	515,336	0,246332	22,300000	52,600000
[...]
2,358707	109,558973	90,181	-0,029177	22,310000	52,800000
2,358668	107,889329	94,240	-0,029881	22,300000	52,760000
2,286625	54,379721	98,300	-0,052462	22,300000	52,760000
2,340731	92,903029	102,242	-0,036206	22,300000	52,745000
2,421665	151,084864	106,300	-0,011653	22,310000	52,770000
2,502689	207,236050	110,360	0,012043	22,310000	52,760000
2,526726	222,998741	114,418	0,018695	22,300000	52,800000
2,526643	220,968093	118,474	0,017838	22,320000	52,770000
2,508654	205,613846	122,536	0,011358	22,310000	52,770000
2,427738	146,765542	126,592	-0,013476	22,300000	52,800000
2,367630	99,745909	130,534	-0,033318	22,300000	52,760000
2,448667	164,166636	134,595	-0,006132	22,300000	52,745000
2,529679	223,445368	138,652	0,018883	22,300000	52,745000
2,610673	279,094389	142,710	0,042367	22,300000	52,770000
2,691683	338,122038	146,771	0,067277	22,310000	52,760000
2,694647	337,550448	150,836	0,067036	22,310000	52,785000
2,694651	336,021966	154,894	0,066391	22,310000	52,770000
2,655700	307,295524	158,953	0,054268	22,300000	52,770000
2,574660	243,847888	163,014	0,027493	22,300000	52,760000
2,493619	186,481783	167,071	0,003285	22,310000	52,760000
2,469671	169,229950	171,018	-0,003996	22,300000	52,770000
2,550696	229,229534	175,072	0,021324	22,310000	52,770000
2,631670	290,585197	179,134	0,047216	22,300000	52,770000
2,712728	347,637737	183,194	0,071292	22,300000	52,745000
2,793654	406,540423	187,252	0,096149	22,300000	52,770000
2,862651	457,227951	191,308	0,117540	22,300000	52,770000
2,862721	454,994816	195,370	0,116597	22,310000	52,760000
2,862664	453,638737	199,427	0,116025	22,300000	52,770000
2,808662	413,688768	203,487	0,099166	22,310000	52,785000
2,727674	351,988300	207,542	0,073128	22,320000	52,785000
2,646682	292,034999	211,600	0,047828	22,310000	52,785000
2,565666	233,242234	215,659	0,023018	22,300000	52,800000
2,565676	232,160378	219,595	0,022561	22,310000	52,760000
2,646718	293,649104	223,658	0,048509	22,300000	52,770000
2,727750	354,323256	227,719	0,074114	22,290000	52,780000
2,808659	413,656370	231,779	0,099152	22,300000	52,760000
2,889572	474,738966	235,839	0,124929	22,300000	52,745000
2,970685	532,245076	239,896	0,149197	22,300000	52,785000
3,030605	577,062815	243,956	0,168110	22,310000	52,760000
3,030615	574,931502	248,011	0,167210	22,310000	52,785000
3,030652	574,005850	252,073	0,166820	22,300000	52,745000
2,967634	524,932427	256,128	0,146111	22,290000	52,755000
2,886587	464,980284	260,182	0,120811	22,300000	52,760000
2,805670	401,720092	264,239	0,094115	22,310000	52,770000
2,724654	341,861671	268,297	0,068855	22,300000	52,770000
2,643628	283,036508	272,358	0,044031	22,310000	52,770000
2,655607	295,389329	276,305	0,049244	22,310000	52,800000
2,736619	355,201468	280,360	0,074484	22,310000	52,770000
2,817694	416,980617	284,416	0,100555	22,300000	52,760000
2,898630	477,003342	288,473	0,125885	22,310000	52,770000
2,979652	537,019124	292,530	0,151211	22,300000	52,785000
3,060629	597,747658	296,586	0,176839	22,300000	52,810000
3,141612	655,662211	300,645	0,201279	22,310000	52,785000
3,198596	698,598563	304,707	0,219398	22,310000	52,800000
3,198592	696,953218	308,761	0,218704	22,320000	52,770000
3,198505	695,479117	312,815	0,218082	22,300000	52,760000
3,132590	644,069581	316,872	0,196387	22,310000	52,800000
3,051592	581,735041	320,930	0,170082	22,300000	52,760000
2,970620	521,068989	324,984	0,144480	22,320000	52,770000
2,889625	462,494909	329,041	0,119762	22,300000	52,770000
2,808689	402,997491	333,097	0,094654	22,300000	52,785000
2,727644	341,814231	337,157	0,068835	22,310000	52,745000
2,739625	352,661711	341,100	0,073413	22,300000	52,730000
2,820625	416,148687	345,158	0,100204	22,300000	52,810000
2,901618	476,125130	349,216	0,125514	22,300000	52,770000
2,982620	535,623704	353,278	0,150623	22,300000	52,760000
3,063583	595,741308	357,332	0,175992	22,310000	52,800000
3,144662	658,170727	361,393	0,202337	22,320000	52,800000
3,225590	715,920977	365,452	0,226708	22,310000	52,760000
3,306533	775,034249	369,510	0,251654	22,300000	52,760000
3,366564	820,894503	373,570	0,271007	22,300000	52,785000
3,366554	818,989975	377,628	0,270203	22,310000	52,760000
3,366549	818,119863	381,689	0,269836	22,310000	52,770000
3,303560	770,269457	385,744	0,249643	22,310000	52,800000
3,222596	707,674578	389,802	0,223228	22,310000	52,800000
3,141661	643,709734	393,859	0,196235	22,300000	52,785000
3,060540	585,551040	397,917	0,171692	22,300000	52,800000
2,979595	525,167312	401,978	0,146210	22,300000	52,770000
2,898646	465,136487	406,038	0,120877	22,310000	52,760000
2,817574	403,710243	410,096	0,094955	22,310000	52,730000
2,817651	404,987643	414,033	0,095494	22,300000	52,760000
2,898652	470,012357	418,090	0,122935	22,310000	52,770000
2,979616	531,642245	422,146	0,148942	22,310000	52,745000
3,060601	592,456402	426,201	0,174606	22,310000	52,785000
3,141645	650,810639	430,259	0,199231	22,300000	52,770000
3,222606	713,192619	434,316	0,225557	22,300000	52,785000
3,303576	773,349563	438,376	0,250943	22,310000	52,785000
3,384582	833,380387	442,434	0,276276	22,300000	52,800000
3,465524	891,311139	446,494	0,300723	22,300000	52,745000
3,534489	943,942536	450,549	0,322933	22,300000	52,800000
3,534517	941,505758	454,608	0,321905	22,300000	52,785000
3,534531	940,517624	458,664	0,321488	22,310000	52,770000
3,480584	899,203477	462,721	0,304053	22,300000	52,785000
3,399485	834,312981	466,781	0,276669	22,300000	52,760000
3,318557	772,643754	470,839	0,250645	22,310000	52,760000
3,237602	713,655445	474,898	0,225752	22,310000	52,800000
3,156626	651,202884	478,960	0,199397	22,310000	52,760000
3,075649	592,684344	483,019	0,174702	22,300000	52,810000
2,994623	531,343722	487,076	0,148816	22,290000	52,795000
2,913639	473,061223	491,135	0,124221	22,290000	52,780000
2,889626	454,625713	495,071	0,116441	22,310000	52,785000
2,970665	517,752842	499,131	0,143081	22,300000	52,800000
3,051579	579,124704	503,189	0,168980	22,300000	52,810000
3,132615	640,166802	507,244	0,194740	22,300000	52,810000
3,213552	703,175911	511,302	0,221330	22,300000	52,800000
3,294644	761,380887	515,361	0,245892	22,310000	52,785000
3,375601	821,889579	519,422	0,271427	22,300000	52,810000
3,456554	882,305706	523,480	0,296922	22,290000	52,780000
3,537565	943,057381	527,534	0,322560	22,310000	52,800000
3,618462	1002,704060	531,590	0,347730	22,310000	52,770000
3,699511	1064,686852	535,645	0,373887	22,310000	52,800000
3,702532	1064,460067	539,701	0,373792	22,310000	52,800000
3,702476	1063,041506	543,757	0,373193	22,300000	52,770000
3,663536	1033,727275	547,813	0,360822	22,310000	52,760000
3,582516	970,631387	551,869	0,334196	22,310000	52,800000
3,501500	906,085697	555,927	0,306958	22,310000	52,785000
3,420555	847,301031	559,984	0,282150	22,310000	52,800000
3,339566	786,211493	564,039	0,256371	22,300000	52,810000
3,258583	723,248667	568,097	0,229800	22,300000	52,770000
3,177594	662,889237	572,158	0,204329	22,300000	52,785000
3,096643	604,794181	576,214	0,179813	22,300000	52,770000
3,015665	545,295607	580,272	0,154704	22,310000	52,770000
2,934663	483,077931	584,329	0,128448	22,300000	52,785000
2,853631	426,314657	588,387	0,104494	22,300000	52,770000
2,772624	367,122704	592,440	0,079515	22,310000	52,785000
2,691706	308,369279	596,502	0,054721	22,300000	52,770000
2,610724	249,632053	600,560	0,029934	22,300000	52,800000
2,529651	191,685103	604,618	0,005480	22,310000	52,785000
2,448685	131,568656	608,672	-0,019889	22,310000	52,800000
2,367647	75,048365	612,727	-0,043740	22,310000	52,770000
2,286681	20,832948	616,782	-0,066619	22,300000	52,760000
2,205638	-35,270799	620,840	-0,090295	22,310000	52,770000
2,124704	-92,213418	624,899	-0,114325	22,320000	52,760000
2,043718	-145,394420	628,961	-0,136767	22,300000	52,800000
1,962719	-201,130221	633,018	-0,160288	22,310000	52,800000
1,881710	-255,470601	637,077	-0,183219	22,300000	52,810000
1,800710	-308,078856	641,133	-0,205420	22,310000	52,785000
1,719779	-359,434010	645,188	-0,227092	22,300000	52,785000
1,638751	-413,539507	649,242	-0,249924	22,300000	52,760000
1,557745	-463,192619	653,297	-0,270878	22,310000	52,800000
1,476770	-509,773724	657,354	-0,290535	22,300000	52,800000
1,395787	-555,484717	661,411	-0,309825	22,310000	52,785000
1,314711	-601,305632	665,469	-0,329162	22,310000	52,785000
1,233775	-638,395337	669,524	-0,344813	22,300000	52,810000
1,152746	-678,384645	673,580	-0,361689	22,310000	52,800000
1,071799	-708,434769	677,636	-0,374370	22,300000	52,785000
0,990767	-731,252083	681,692	-0,383999	22,310000	52,770000
0,909714	-736,808307	685,753	-0,386344	22,310000	52,785000
0,828721	0,109921	689,810	-0,075364	22,300000	52,760000
0,747745	-0,101822	693,864	-0,075454	22,310000	52,770000
0,690745	0,211743	696,720	-0,075321	22,300000	52,800000