File: Nanoindentation Datenauswertung/data/PDMS/13.09/APM-PDMS-150ms,3um,7nms,9cycles,1,5um offset,5x1-2
Quasi static measurement routine
Tip parameters (shape,radius, material...)
13.09.2022

Piezo position[nm]	MEMS displ.[nm]	Time[ms]	Cap [pf]	Temp [°C]	Rh [%]
eoh

X-Pos [um]	Y-Pos [um]
0,000278	10,000814

POC
2,102017
0,657186	-0,024298	9,320	-0,075794	22,310000	52,035000
0,713144	-0,055539	17,733	-0,075808	22,300000	52,020000
0,769146	0,077523	26,145	-0,075751	22,290000	52,015000
0,825150	0,046283	34,560	-0,075765	22,310000	52,035000
0,881092	-0,109921	42,970	-0,075831	22,290000	52,055000
0,937098	-0,101822	51,385	-0,075827	22,310000	52,020000
0,993074	-0,032398	59,800	-0,075798	22,300000	52,045000
1,049050	-0,086780	68,213	-0,075821	22,290000	52,030000
1,105137	-0,392245	76,631	-0,075950	22,300000	52,060000
1,161141	-0,165460	85,044	-0,075854	22,300000	52,045000
1,217099	-0,384145	93,456	-0,075946	22,300000	52,045000
1,273154	-0,329763	101,872	-0,075923	22,300000	52,035000
1,329088	0,000000	110,286	-0,075784	22,300000	52,060000
1,385070	-0,627129	118,706	-0,076049	22,290000	52,040000
1,441104	-0,659527	127,120	-0,076063	22,290000	52,040000
1,497110	-0,533407	135,538	-0,076009	22,290000	52,030000
1,553089	-0,674569	143,956	-0,076069	22,290000	52,040000
1,609081	-0,587789	152,372	-0,076032	22,300000	52,035000
1,665094	-0,823830	160,787	-0,076132	22,290000	52,040000
1,721104	-0,627129	169,196	-0,076049	22,290000	52,040000
1,777056	-1,081855	177,610	-0,076241	22,290000	52,030000
1,833085	-176,966084	186,024	-0,150464	22,290000	52,030000
1,889120	-144,093880	194,433	-0,136592	22,300000	52,075000
1,945124	-109,254665	202,848	-0,121890	22,300000	52,060000
2,001053	-72,611587	211,263	-0,106426	22,300000	52,060000
2,057107	-36,564398	219,675	-0,091214	22,300000	52,075000
2,113029	0,328606	228,090	-0,075646	22,300000	52,085000
2,169118	37,104747	236,502	-0,060126	22,290000	52,030000
2,225069	73,393763	244,915	-0,044812	22,290000	52,015000
2,268992	101,901520	253,329	-0,032782	22,290000	52,095000
2,268022	98,954476	261,743	-0,034025	22,290000	52,055000
2,241017	78,041691	270,042	-0,042851	22,290000	52,055000
2,297011	117,725535	278,455	-0,026104	22,290000	52,040000
2,353052	156,508025	286,870	-0,009738	22,300000	52,075000
2,409087	194,248001	295,282	0,006188	22,300000	52,060000
2,435958	211,640995	303,694	0,013528	22,300000	52,045000
2,418038	195,988226	312,106	0,006923	22,300000	52,075000
2,362103	153,999509	320,520	-0,010796	22,290000	52,030000
2,397060	180,539100	328,826	0,000403	22,300000	52,035000
2,453054	221,383479	337,244	0,017640	22,290000	52,080000
2,509002	261,184186	345,657	0,034436	22,300000	52,060000
2,565080	298,132729	354,075	0,050028	22,300000	52,085000
2,603071	323,715427	362,491	0,060824	22,300000	52,075000
2,595980	316,763783	370,899	0,057890	22,290000	52,070000
2,540081	273,152862	379,319	0,039486	22,300000	52,045000
2,484078	232,199719	387,734	0,022204	22,310000	52,060000
2,527073	264,459836	396,032	0,035818	22,290000	52,095000
2,583039	306,801457	404,447	0,053686	22,300000	52,085000
2,639013	347,754600	412,860	0,070968	22,300000	52,060000
2,695013	388,269217	421,280	0,088065	22,300000	52,045000
2,751118	427,670736	429,689	0,104693	22,300000	52,075000
2,770041	439,819914	438,103	0,109820	22,300000	52,100000
2,744056	419,487976	446,518	0,101240	22,290000	52,040000
2,687998	376,464844	454,933	0,083084	22,290000	52,070000
2,632044	334,140579	463,348	0,065223	22,300000	52,060000
2,629032	331,765125	471,644	0,064221	22,300000	52,045000
2,685021	374,246751	480,059	0,082148	22,290000	52,040000
2,741044	416,227368	488,476	0,099864	22,290000	52,080000
2,797021	458,262367	496,893	0,117603	22,290000	52,040000
2,852990	498,683261	505,305	0,134660	22,300000	52,085000
2,908996	539,620205	513,722	0,151936	22,290000	52,040000
2,937039	558,502342	522,140	0,159904	22,290000	52,055000
2,920024	543,594722	530,564	0,153613	22,310000	52,085000
2,864011	500,791432	538,984	0,135550	22,300000	52,085000
2,808041	458,387330	547,402	0,117655	22,290000	52,070000
2,751979	416,219268	555,817	0,099860	22,300000	52,035000
2,759028	422,152695	564,146	0,102364	22,290000	52,070000
2,815049	465,778658	572,570	0,120774	22,290000	52,110000
2,870962	507,163387	580,990	0,138239	22,300000	52,115000
2,926989	548,556215	589,406	0,155707	22,300000	52,085000
2,983043	589,721101	597,823	0,173078	22,310000	52,085000
3,038973	631,872964	606,246	0,190866	22,290000	52,055000
3,094964	672,348239	614,664	0,207947	22,310000	52,075000
3,104006	678,031741	623,084	0,210345	22,300000	52,075000
3,067965	650,034249	631,503	0,198530	22,300000	52,100000
3,012013	606,313407	639,922	0,180080	22,300000	52,075000
2,956008	563,110930	648,345	0,161849	22,300000	52,060000
2,899962	521,115271	656,765	0,144126	22,300000	52,075000
2,861009	491,738559	665,072	0,131729	22,290000	52,110000
2,917059	536,101572	673,492	0,150451	22,290000	52,040000
2,973004	578,653779	681,907	0,168408	22,290000	52,070000
3,029074	620,798699	690,320	0,186193	22,300000	52,085000
3,085026	663,162304	698,736	0,204070	22,300000	52,085000
3,140974	704,170986	707,149	0,221376	22,300000	52,075000
3,196980	746,339048	715,560	0,239171	22,290000	52,070000
3,253039	786,963585	723,974	0,256314	22,290000	52,095000
3,270959	799,378888	732,397	0,261554	22,290000	52,095000
3,243988	777,597147	740,816	0,252362	22,290000	52,070000
3,188038	734,214168	749,232	0,234054	22,300000	52,085000
3,132062	691,199135	757,641	0,215902	22,300000	52,115000
3,076012	647,980459	766,057	0,197664	22,300000	52,100000
3,020006	606,462668	774,472	0,180143	22,300000	52,100000
2,993033	586,680335	782,775	0,171795	22,300000	52,060000
3,049089	629,890912	791,190	0,190030	22,290000	52,070000
3,104968	672,802966	799,604	0,208139	22,300000	52,125000
3,161009	714,862263	808,016	0,225888	22,310000	52,085000
3,217023	757,562574	816,428	0,243907	22,300000	52,075000
3,273003	798,853580	824,845	0,261332	22,290000	52,080000
3,328983	840,622454	833,258	0,278958	22,290000	52,080000
3,384946	881,802383	841,675	0,296336	22,290000	52,080000
3,437995	921,376305	850,097	0,313037	22,290000	52,110000
3,437942	919,840880	858,517	0,312389	22,300000	52,085000
3,390001	881,426337	866,934	0,296178	22,290000	52,095000
3,333985	838,741067	875,355	0,278165	22,290000	52,110000
3,277986	795,044524	883,765	0,259725	22,290000	52,095000
3,222009	752,970185	892,177	0,241969	22,290000	52,080000
3,166011	709,994492	900,593	0,223833	22,300000	52,115000
3,109998	668,233718	909,009	0,206210	22,290000	52,070000
3,153006	702,524483	917,308	0,220681	22,290000	52,070000
3,209016	746,355247	925,724	0,239178	22,300000	52,085000
3,265036	788,797532	934,133	0,257088	22,290000	52,095000
3,320938	832,165469	942,544	0,275390	22,290000	52,110000
3,376953	873,957485	950,966	0,293026	22,290000	52,110000
3,432920	915,600239	959,381	0,310599	22,300000	52,100000
3,488929	957,172412	967,792	0,328143	22,290000	52,110000
3,544890	998,965584	976,206	0,345779	22,300000	52,125000
3,600860	1040,153612	984,620	0,363161	22,300000	52,085000
3,604859	1042,309223	993,034	0,364070	22,300000	52,100000
3,563929	1010,172912	1001,448	0,350509	22,310000	52,100000
3,507858	966,343306	1009,856	0,332013	22,290000	52,080000
3,451959	923,140829	1018,271	0,313781	22,310000	52,085000
3,395933	880,619863	1026,682	0,295837	22,290000	52,095000
3,339986	837,079523	1035,090	0,277463	22,300000	52,125000
3,283964	795,820914	1043,507	0,260052	22,300000	52,075000
3,227944	752,546699	1051,923	0,241791	22,300000	52,115000
3,172003	711,570414	1060,335	0,224499	22,310000	52,125000
3,116043	668,703486	1068,750	0,206409	22,300000	52,115000
3,060013	627,068831	1077,162	0,188839	22,300000	52,125000
3,004017	586,005767	1085,581	0,171510	22,290000	52,120000
2,948074	544,872121	1093,996	0,154152	22,300000	52,115000
2,892083	503,346231	1102,412	0,136628	22,290000	52,110000
2,836035	462,706652	1110,827	0,119478	22,300000	52,140000
2,780054	421,714168	1119,239	0,102179	22,290000	52,120000
2,724089	380,556224	1127,656	0,084811	22,300000	52,125000
2,668119	339,227035	1136,068	0,067370	22,300000	52,100000
2,612112	298,916062	1144,482	0,050358	22,290000	52,120000
2,556041	258,440786	1152,901	0,033278	22,290000	52,110000
2,500114	219,815656	1161,316	0,016978	22,290000	52,080000
2,444074	179,583364	1169,734	0,000000	22,310000	52,140000
2,388131	139,876379	1178,151	-0,016756	22,300000	52,100000
2,332101	101,266291	1186,564	-0,033050	22,290000	52,080000
2,276050	60,814157	1194,974	-0,050121	22,310000	52,115000
2,220144	21,389496	1203,388	-0,066758	22,290000	52,110000
2,164102	-16,672143	1211,803	-0,082820	22,290000	52,110000
2,108101	-53,494566	1220,220	-0,098359	22,290000	52,135000
2,052090	-92,480700	1228,638	-0,114811	22,290000	52,095000
1,996072	-129,460484	1237,051	-0,130417	22,300000	52,125000
1,940092	-167,309223	1245,467	-0,146389	22,310000	52,085000
1,884105	-204,743733	1253,878	-0,162186	22,300000	52,115000
1,828093	-240,900844	1262,293	-0,177444	22,300000	52,075000
1,772095	-276,570831	1270,703	-0,192497	22,290000	52,095000
1,716112	-312,555539	1279,112	-0,207683	22,290000	52,070000
1,660160	-344,808714	1287,537	-0,221293	22,290000	52,110000
1,604112	-379,373704	1295,948	-0,235880	22,310000	52,115000
1,548112	-415,013607	1304,364	-0,250920	22,300000	52,115000
1,492122	-447,854571	1312,780	-0,264779	22,290000	52,110000
1,436079	-483,619437	1321,196	-0,279872	22,310000	52,100000
1,380128	-517,847721	1329,610	-0,294316	22,290000	52,095000
1,324120	-551,425735	1338,027	-0,308486	22,290000	52,120000
1,268227	-580,763107	1346,443	-0,320866	22,310000	52,125000
1,212172	-611,369779	1354,857	-0,333782	22,300000	52,115000
1,156116	-641,931326	1363,266	-0,346679	22,300000	52,115000
1,100058	-666,706393	1371,677	-0,357134	22,310000	52,115000
1,044159	-679,341538	1380,085	-0,362466	22,290000	52,120000
0,988167	-695,447877	1388,496	-0,369263	22,300000	52,115000
0,932207	-706,601979	1396,913	-0,373970	22,290000	52,095000
0,876129	-668,712743	1405,322	-0,357981	22,290000	52,095000
0,820107	0,140005	1413,732	-0,075725	22,300000	52,115000
0,764112	0,274224	1422,146	-0,075668	22,300000	52,140000
0,708138	0,382988	1430,558	-0,075623	22,300000	52,100000
0,652125	0,376046	1438,977	-0,075625	22,310000	52,125000
0,602138	0,289266	1446,494	-0,075662	22,290000	52,120000

X-Pos [um]	Y-Pos [um]
0,000476	10,000851

POC
2,114155
0,632229	0,031241	3,759	-0,075642	22,300000	52,115000
0,651256	-0,008099	6,614	-0,075659	22,290000	52,110000
0,670240	0,054382	9,471	-0,075632	22,300000	52,125000
0,689239	0,164303	12,328	-0,075586	22,300000	52,125000
0,708268	0,093722	15,186	-0,075616	22,280000	52,110000
0,727261	0,274224	18,045	-0,075540	22,300000	52,140000
0,746263	0,093722	20,900	-0,075616	22,290000	52,120000
0,765218	0,101822	23,755	-0,075612	22,300000	52,115000
0,784251	0,141162	26,612	-0,075596	22,300000	52,125000
0,803239	0,187444	29,468	-0,075576	22,300000	52,115000
0,822262	0,054382	32,325	-0,075632	22,300000	52,155000
0,841233	0,141162	35,181	-0,075596	22,290000	52,120000
0,860291	0,023141	38,040	-0,075646	22,290000	52,120000
0,879256	-0,047440	40,893	-0,075675	22,300000	52,115000
0,898204	0,077523	43,746	-0,075623	22,310000	52,115000
0,917217	0,249926	46,604	-0,075550	22,300000	52,125000
0,936253	0,116864	49,461	-0,075606	22,300000	52,125000
0,955231	0,133062	52,316	-0,075599	22,290000	52,120000
0,974253	0,133062	55,171	-0,075599	22,290000	52,150000
0,993227	0,266125	58,032	-0,075543	22,290000	52,120000
1,012241	0,070581	60,885	-0,075625	22,290000	52,120000
1,031288	0,164303	63,738	-0,075586	22,290000	52,135000
1,050293	0,054382	66,596	-0,075632	22,300000	52,100000
1,069293	0,344805	69,451	-0,075510	22,300000	52,125000
1,088251	-0,126120	72,305	-0,075708	22,300000	52,125000
1,107216	0,141162	75,158	-0,075596	22,300000	52,140000
1,126197	0,101822	78,015	-0,075612	22,290000	52,135000
1,145225	0,054382	80,873	-0,075632	22,290000	52,135000
1,164214	0,180502	83,730	-0,075579	22,300000	52,125000
1,183197	0,062481	86,584	-0,075629	22,290000	52,160000
1,202300	0,085623	89,440	-0,075619	22,300000	52,140000
1,221236	0,062481	92,297	-0,075629	22,310000	52,140000
1,240297	-0,031241	95,153	-0,075668	22,300000	52,125000
1,259250	0,038183	98,005	-0,075639	22,300000	52,140000
1,278274	-0,195544	100,859	-0,075738	22,300000	52,125000
1,297252	0,062481	103,713	-0,075629	22,290000	52,135000
1,316226	0,258025	106,567	-0,075546	22,310000	52,155000
1,335266	0,000000	109,422	-0,075655	22,300000	52,100000
1,354218	0,031241	112,279	-0,075642	22,290000	52,150000
1,373268	0,038183	115,135	-0,075639	22,290000	52,150000
1,392198	0,320507	117,993	-0,075520	22,300000	52,155000
1,411243	0,116864	120,851	-0,075606	22,290000	52,120000
1,430276	0,054382	123,704	-0,075632	22,300000	52,125000
1,449232	-0,078680	126,561	-0,075688	22,300000	52,125000
1,468215	-0,023141	129,421	-0,075665	22,300000	52,165000
1,487258	0,077523	132,279	-0,075623	22,310000	52,140000
1,506232	-0,305465	135,135	-0,075784	22,300000	52,125000
1,525222	0,038183	137,990	-0,075639	22,290000	52,135000
1,544247	-0,086780	140,844	-0,075692	22,290000	52,135000
1,563272	0,141162	143,700	-0,075596	22,290000	52,110000
1,582245	-0,078680	146,553	-0,075688	22,290000	52,120000
1,601256	-7,837955	149,406	-0,078963	22,290000	52,120000
1,620188	-9,922986	152,265	-0,079843	22,290000	52,120000
1,639204	-11,577588	155,122	-0,080541	22,300000	52,140000
1,658221	-13,379138	157,977	-0,081301	22,300000	52,140000
1,677221	-13,316656	160,832	-0,081275	22,300000	52,155000
1,696217	-14,257350	163,689	-0,081672	22,290000	52,120000
1,715228	-249,875037	166,547	-0,181103	22,290000	52,120000
1,734187	-244,059630	169,402	-0,178648	22,310000	52,140000
1,753240	-234,394670	172,259	-0,174570	22,310000	52,125000
1,772240	-222,770799	175,115	-0,169665	22,310000	52,125000
1,791218	-211,759016	177,971	-0,165018	22,300000	52,115000
1,810218	-200,573673	180,828	-0,160297	22,280000	52,150000
1,829248	-188,503175	183,683	-0,155204	22,290000	52,150000
1,848212	-176,245233	186,541	-0,150031	22,300000	52,155000
1,867219	-164,323997	189,401	-0,145000	22,290000	52,160000
1,886249	-151,688851	192,256	-0,139668	22,310000	52,155000
1,905132	-139,500333	195,112	-0,134524	22,290000	52,160000
1,924254	-127,226192	197,968	-0,129345	22,300000	52,125000
1,943232	-115,288757	200,825	-0,124307	22,300000	52,140000
1,962203	-103,296940	203,682	-0,119247	22,300000	52,155000
1,981205	-90,693035	206,537	-0,113928	22,290000	52,135000
2,000179	-78,192110	209,392	-0,108652	22,300000	52,180000
2,019213	-65,729367	212,244	-0,103393	22,300000	52,155000
2,038173	-53,024798	215,099	-0,098032	22,290000	52,160000
2,057219	-40,428993	217,955	-0,092716	22,300000	52,125000
2,076163	-28,844463	220,811	-0,087828	22,300000	52,140000
2,095200	-16,279899	223,669	-0,082525	22,300000	52,155000
2,114176	-3,127546	226,526	-0,076975	22,290000	52,150000
2,133209	8,942952	229,379	-0,071881	22,300000	52,155000
2,152154	21,867363	232,236	-0,066427	22,300000	52,155000
2,171146	33,702977	235,093	-0,061433	22,300000	52,155000
2,190200	46,118280	237,951	-0,056193	22,290000	52,135000
2,209216	58,321840	240,810	-0,051043	22,290000	52,135000
2,228182	70,902603	243,662	-0,045734	22,290000	52,110000
2,247184	83,035582	246,518	-0,040614	22,290000	52,110000
2,266192	96,211076	249,375	-0,035054	22,290000	52,150000
2,281173	105,420153	252,232	-0,031168	22,290000	52,150000
2,281175	104,229534	255,087	-0,031670	22,290000	52,150000
2,281153	103,100239	257,942	-0,032147	22,310000	52,115000
2,281208	102,441869	260,801	-0,032425	22,300000	52,115000
2,268157	92,095398	263,659	-0,036791	22,320000	52,140000
2,249238	77,438861	266,518	-0,042976	22,310000	52,125000
2,247156	75,588714	269,260	-0,043757	22,290000	52,120000
2,266196	89,744242	272,113	-0,037783	22,290000	52,120000
2,285168	103,531824	274,968	-0,031965	22,300000	52,115000
2,304164	117,067165	277,825	-0,026253	22,310000	52,140000
2,323136	130,423162	280,685	-0,020617	22,300000	52,155000
2,342209	143,450552	283,541	-0,015119	22,300000	52,140000
2,361149	156,281241	286,395	-0,009705	22,300000	52,155000
2,380197	169,508803	289,247	-0,004123	22,300000	52,115000
2,399172	183,776566	292,103	0,001898	22,300000	52,115000
2,418165	196,615355	294,962	0,007316	22,300000	52,100000
2,437194	209,469185	297,819	0,012741	22,300000	52,140000
2,448200	216,531907	300,676	0,015721	22,300000	52,165000
2,448118	215,575015	303,531	0,015317	22,300000	52,140000
2,448244	214,893504	306,384	0,015030	22,300000	52,125000
2,448230	214,007192	309,241	0,014656	22,300000	52,125000
2,431158	200,972860	312,095	0,009155	22,300000	52,125000
2,412116	186,426244	314,950	0,003017	22,300000	52,115000
2,393146	171,361263	317,805	-0,003341	22,300000	52,155000
2,374223	157,496159	320,657	-0,009192	22,300000	52,125000
2,372223	155,865855	323,395	-0,009880	22,300000	52,140000
2,391175	171,110180	326,250	-0,003447	22,300000	52,140000
2,410197	185,288850	329,102	0,002537	22,300000	52,115000
2,429189	198,206318	331,961	0,007988	22,290000	52,135000
2,448164	212,338705	334,820	0,013952	22,290000	52,150000
2,467164	226,438694	337,679	0,019902	22,290000	52,150000
2,486160	238,211826	340,536	0,024870	22,290000	52,150000
2,505158	251,387320	343,391	0,030430	22,300000	52,125000
2,524177	265,017541	346,251	0,036182	22,300000	52,115000
2,543149	278,905787	349,108	0,042043	22,300000	52,115000
2,562123	292,136821	351,961	0,047626	22,290000	52,135000
2,581146	304,913128	354,815	0,053018	22,290000	52,160000
2,600142	318,942536	357,674	0,058938	22,300000	52,115000
2,615130	329,123547	360,530	0,063235	22,300000	52,115000
2,615180	328,089131	363,387	0,062798	22,310000	52,140000
2,615225	327,493243	366,241	0,062547	22,300000	52,155000
2,615153	327,297699	369,098	0,062464	22,300000	52,155000
2,602171	316,904945	371,951	0,058079	22,300000	52,115000
2,583208	302,020466	374,806	0,051797	22,300000	52,165000
2,564146	287,943619	377,666	0,045857	22,310000	52,165000
2,545178	273,098480	380,522	0,039592	22,300000	52,155000
2,526223	258,708068	383,375	0,033520	22,300000	52,140000
2,507193	245,202810	386,231	0,027820	22,300000	52,140000
2,491202	231,933594	388,969	0,022221	22,300000	52,140000
2,510168	248,032990	391,822	0,029015	22,300000	52,155000
2,529238	262,172319	394,679	0,034981	22,290000	52,135000
2,548176	276,014283	397,535	0,040823	22,300000	52,115000
2,567161	290,490318	400,388	0,046932	22,290000	52,160000
2,586174	304,913128	403,242	0,053018	22,290000	52,135000
2,605114	318,409129	406,098	0,058713	22,290000	52,135000
2,624200	332,761358	408,950	0,064770	22,310000	52,140000
2,643154	346,642661	411,807	0,070628	22,300000	52,140000
2,662181	360,655870	414,657	0,076542	22,300000	52,125000
2,681145	373,612680	417,510	0,082009	22,290000	52,120000
2,700172	387,203560	420,362	0,087745	22,290000	52,135000
2,719186	400,606996	423,218	0,093401	22,300000	52,125000
2,738246	414,142337	426,071	0,099113	22,300000	52,125000
2,757161	427,695035	428,923	0,104832	22,300000	52,115000
2,776175	441,074172	431,780	0,110478	22,300000	52,140000
2,782148	445,580939	434,637	0,112380	22,300000	52,125000
2,782250	444,891328	437,491	0,112089	22,300000	52,180000
2,782191	444,334780	440,344	0,111854	22,300000	52,180000
2,779111	441,881804	443,202	0,110819	22,290000	52,135000
2,760124	427,169727	446,062	0,104610	22,290000	52,120000
2,741215	411,814324	448,917	0,098130	22,300000	52,155000
2,722134	397,001583	451,772	0,091879	22,300000	52,140000
2,703174	382,453810	454,629	0,085740	22,300000	52,140000
2,684154	368,431344	457,482	0,079823	22,300000	52,180000
2,665162	354,025890	460,337	0,073744	22,300000	52,180000
2,646178	340,817998	463,192	0,068170	22,290000	52,135000
2,627161	325,964760	466,049	0,061902	22,290000	52,175000
2,621199	321,356172	468,801	0,059957	22,290000	52,150000
2,640184	336,256850	471,653	0,066245	22,290000	52,135000
2,659190	351,658536	474,507	0,072745	22,300000	52,125000
2,678154	365,829106	477,362	0,078725	22,300000	52,155000
2,697153	379,616688	480,214	0,084543	22,290000	52,190000
2,716116	394,892254	483,072	0,090989	22,290000	52,190000
2,735170	408,875380	485,927	0,096890	22,300000	52,140000
2,741170	413,209743	486,827	0,098719	22,300000	52,140000