File: Nanoindentation Datenauswertung/data/PDMS/13.09/APM-PDMS-150ms,3um,20nms,9cycles,1,5um offset,5x1-4
Quasi static measurement routine
Tip parameters (shape,radius, material...)
13.09.2022

Piezo position[nm]	MEMS displ.[nm]	Time[ms]	Cap [pf]	Temp [°C]	Rh [%]
eoh

X-Pos [um]	Y-Pos [um]
0,000094	0,000889

POC
2,171980
0,732074	-0,015042	4,051	-0,075556	22,300000	52,455000
0,795079	0,094879	7,205	-0,075510	22,310000	52,440000
0,858054	-0,046283	10,366	-0,075569	22,300000	52,470000
0,920997	0,039340	13,526	-0,075533	22,300000	52,470000
0,984099	0,063639	16,684	-0,075523	22,290000	52,475000
1,047082	-0,140005	19,838	-0,075609	22,300000	52,495000
1,110089	0,188602	22,994	-0,075470	22,300000	52,455000
1,173031	-0,124963	26,150	-0,075603	22,310000	52,470000
1,236014	0,149261	29,307	-0,075487	22,300000	52,440000
1,299017	0,000000	32,469	-0,075550	22,300000	52,430000
1,362011	-0,030084	35,626	-0,075563	22,290000	52,465000
1,425056	0,251083	38,787	-0,075444	22,290000	52,450000
1,488036	0,126120	41,942	-0,075497	22,300000	52,470000
1,551052	-0,124963	45,100	-0,075603	22,300000	52,455000
1,614022	0,016199	48,255	-0,075543	22,310000	52,470000
1,677097	-0,124963	51,411	-0,075603	22,310000	52,455000
1,740028	-7,711835	54,569	-0,078804	22,300000	52,430000
1,803045	-14,436695	57,724	-0,081642	22,290000	52,465000
1,865981	-195,722101	60,880	-0,158145	22,310000	52,455000
1,929035	-156,923412	64,037	-0,141771	22,300000	52,440000
1,992012	-119,912387	67,192	-0,126153	22,300000	52,495000
2,054998	-79,468352	70,349	-0,109085	22,290000	52,465000
2,117993	-38,122964	73,504	-0,091638	22,310000	52,440000
2,181012	3,778973	76,661	-0,073955	22,290000	52,435000
2,243973	45,405528	79,822	-0,056389	22,300000	52,455000
2,306979	87,730950	82,979	-0,038527	22,300000	52,470000
2,340039	109,983616	86,139	-0,029137	22,300000	52,470000
2,340000	107,498241	89,298	-0,030186	22,290000	52,450000
2,340064	105,836697	92,458	-0,030887	22,290000	52,450000
2,321977	93,444535	95,615	-0,036116	22,300000	52,440000
2,333930	100,553540	98,651	-0,033116	22,300000	52,415000
2,397004	143,772216	101,811	-0,014878	22,320000	52,430000
2,459994	190,573164	104,966	0,004872	22,300000	52,440000
2,508056	222,434094	108,122	0,018317	22,300000	52,455000
2,508075	219,894337	111,278	0,017246	22,300000	52,480000
2,507984	218,217750	114,440	0,016538	22,300000	52,480000
2,505002	217,237717	117,601	0,016125	22,300000	52,455000
2,442023	168,673402	120,759	-0,004370	22,290000	52,425000
2,466021	184,475433	123,801	0,002299	22,310000	52,415000
2,529043	232,718084	126,960	0,022657	22,290000	52,475000
2,592060	277,974350	130,118	0,041755	22,300000	52,455000
2,654986	321,381628	133,273	0,060073	22,300000	52,470000
2,676039	334,987550	136,424	0,065815	22,300000	52,440000
2,676002	333,537748	139,576	0,065203	22,300000	52,440000
2,675971	332,111087	142,730	0,064601	22,300000	52,440000
2,645961	310,462409	145,886	0,055465	22,300000	52,440000
2,583012	260,032907	149,045	0,034184	22,300000	52,455000
2,576978	255,627962	152,086	0,032325	22,300000	52,440000
2,639988	305,149169	155,238	0,053223	22,300000	52,455000
2,703038	351,847138	158,397	0,072930	22,310000	52,495000
2,765969	398,162119	161,551	0,092475	22,310000	52,470000
2,828999	441,082272	164,709	0,110587	22,290000	52,410000
2,843989	451,844130	167,864	0,115128	22,300000	52,430000
2,843963	450,479950	171,016	0,114553	22,300000	52,480000
2,844017	449,226849	174,174	0,114024	22,310000	52,440000
2,807900	420,477266	177,330	0,101892	22,300000	52,470000
2,744962	373,518957	180,484	0,082075	22,310000	52,440000
2,681936	327,275715	183,640	0,062561	22,310000	52,455000
2,730017	361,159194	186,682	0,076859	22,300000	52,480000
2,792999	409,456226	189,839	0,097241	22,300000	52,480000
2,855975	456,468917	192,992	0,117080	22,300000	52,455000
2,918990	502,940101	196,149	0,136691	22,300000	52,470000
2,982053	549,363846	199,302	0,156282	22,300000	52,495000
3,011955	571,255508	202,456	0,165520	22,310000	52,480000
3,011922	569,711983	205,611	0,164869	22,300000	52,440000
3,011960	568,755091	208,769	0,164465	22,300000	52,440000
2,990987	554,098554	211,924	0,158280	22,310000	52,470000
2,927952	504,406102	215,076	0,137310	22,310000	52,470000
2,864975	456,303456	218,232	0,117010	22,300000	52,440000
2,801953	408,162628	221,390	0,096695	22,300000	52,470000
2,862003	454,909194	224,428	0,116422	22,290000	52,450000
2,924923	503,198126	227,583	0,136800	22,290000	52,475000
2,987966	551,307714	230,737	0,157102	22,300000	52,430000
3,050941	598,241725	233,890	0,176908	22,300000	52,430000
3,113916	642,361754	237,042	0,195527	22,310000	52,480000
3,176896	690,737467	240,199	0,215941	22,310000	52,480000
3,179902	691,294015	243,356	0,216176	22,300000	52,455000
3,179942	689,781731	246,512	0,215538	22,300000	52,455000
3,179998	688,942860	249,671	0,215184	22,300000	52,480000
3,131898	652,715168	252,828	0,199896	22,310000	52,455000
3,068919	603,014616	255,986	0,178922	22,310000	52,470000
3,005933	554,121695	259,140	0,158290	22,300000	52,495000
2,942987	509,194035	262,296	0,139330	22,300000	52,495000
2,972952	531,023215	265,334	0,148542	22,300000	52,455000
3,035960	578,435093	268,491	0,168550	22,300000	52,455000
3,098972	626,708984	271,646	0,188921	22,300000	52,495000
3,161884	674,912295	274,800	0,209263	22,310000	52,470000
3,224939	720,795690	277,954	0,228626	22,300000	52,455000
3,287919	767,965742	281,108	0,248532	22,300000	52,440000
3,347856	814,295764	284,261	0,268083	22,300000	52,440000
3,347880	811,716667	287,416	0,266995	22,300000	52,470000
3,347887	810,744733	290,566	0,266584	22,300000	52,455000
3,347917	809,828338	293,722	0,266198	22,300000	52,470000
3,293864	769,423643	296,877	0,249147	22,300000	52,470000
3,230902	717,990966	300,035	0,227442	22,300000	52,470000
3,167938	672,522956	303,189	0,208255	22,300000	52,480000
3,104970	624,851896	306,344	0,188138	22,310000	52,470000
3,062953	589,925902	309,383	0,173399	22,300000	52,470000
3,125951	639,587113	312,538	0,194356	22,310000	52,480000
3,188918	688,480034	315,699	0,214989	22,300000	52,470000
3,251926	736,753925	318,856	0,235360	22,300000	52,470000
3,314910	785,145836	322,011	0,255782	22,300000	52,470000
3,377909	833,091121	325,167	0,276015	22,300000	52,440000
3,440856	880,511099	328,321	0,296026	22,300000	52,440000
3,503870	927,146586	331,480	0,315706	22,310000	52,480000
3,515805	934,028806	334,637	0,318610	22,290000	52,490000
3,515853	932,930752	337,791	0,318147	22,300000	52,440000
3,515807	931,896336	340,944	0,317710	22,290000	52,475000
3,476831	901,555789	344,100	0,304907	22,310000	52,480000
3,413854	853,807205	347,257	0,284757	22,300000	52,495000
3,350874	802,875537	350,414	0,263264	22,300000	52,495000
3,287865	755,424319	353,571	0,243239	22,290000	52,450000
3,224911	709,846388	356,725	0,224005	22,300000	52,470000
3,194915	686,481783	359,769	0,214146	22,300000	52,455000
3,257914	735,586447	362,924	0,234868	22,300000	52,510000
3,320903	782,888403	366,078	0,254829	22,300000	52,480000
3,383889	830,966751	369,232	0,275118	22,300000	52,440000
3,446872	881,028306	372,391	0,296244	22,310000	52,480000
3,509873	926,026548	375,545	0,315233	22,310000	52,470000
3,572777	973,962576	378,701	0,335462	22,300000	52,470000
3,635884	1020,497399	381,855	0,355100	22,300000	52,470000
3,683813	1057,821988	385,013	0,370851	22,300000	52,455000
3,683809	1055,806381	388,172	0,370000	22,310000	52,495000
3,683779	1055,390995	391,329	0,369825	22,300000	52,480000
3,680803	1052,742474	394,488	0,368708	22,310000	52,480000
3,617823	1002,015606	397,640	0,347301	22,310000	52,480000
3,554866	952,620520	400,794	0,326456	22,310000	52,480000
3,491874	906,712826	403,950	0,307083	22,300000	52,455000
3,428882	858,806881	407,105	0,286867	22,300000	52,495000
3,365903	810,910193	410,264	0,266654	22,290000	52,450000
3,302904	761,264024	413,422	0,245704	22,290000	52,465000
3,239889	716,697367	416,577	0,226896	22,300000	52,495000
3,176927	667,811389	419,732	0,206267	22,300000	52,495000
3,113946	622,806206	422,886	0,187274	22,300000	52,495000
3,050923	573,787165	426,039	0,166588	22,300000	52,470000
2,987964	529,886978	429,195	0,148063	22,310000	52,440000
2,925009	481,378203	432,348	0,127592	22,310000	52,440000
2,862031	437,014033	435,505	0,108870	22,300000	52,470000
2,799005	389,987457	438,663	0,089025	22,310000	52,470000
2,735963	346,086113	441,818	0,070499	22,300000	52,440000
2,672991	300,570664	444,971	0,051291	22,300000	52,455000
2,610021	255,220675	448,126	0,032153	22,290000	52,475000
2,547016	207,385312	451,285	0,011967	22,300000	52,455000
2,484018	165,350313	454,441	-0,005772	22,300000	52,470000
2,420989	119,599980	457,592	-0,025079	22,310000	52,470000
2,358015	75,331846	460,749	-0,043760	22,310000	52,470000
2,295047	31,563564	463,904	-0,062230	22,310000	52,470000
2,232071	-12,743909	467,057	-0,080928	22,300000	52,495000
2,169027	-53,555891	470,215	-0,098150	22,300000	52,470000
2,105995	-98,726535	473,369	-0,117212	22,290000	52,490000
2,043058	-138,778325	476,524	-0,134114	22,310000	52,480000
1,980007	-181,033166	479,679	-0,151946	22,310000	52,480000
1,917018	-222,879563	482,832	-0,169605	22,310000	52,470000
1,854054	-263,840806	485,990	-0,186891	22,310000	52,495000
1,791034	-305,665220	489,148	-0,204541	22,290000	52,490000
1,728088	-345,904454	492,303	-0,221521	22,310000	52,480000
1,665058	-385,102331	495,459	-0,238063	22,300000	52,510000
1,602055	-425,303382	498,611	-0,255028	22,300000	52,495000
1,539051	-462,682353	501,766	-0,270802	22,300000	52,480000
1,476060	-500,124963	504,922	-0,286603	22,310000	52,510000
1,413072	-538,617030	508,077	-0,302846	22,310000	52,510000
1,350082	-572,186945	511,236	-0,317013	22,310000	52,440000
1,287099	-603,335123	514,394	-0,330157	22,300000	52,495000
1,224000	-632,147188	517,550	-0,342316	22,300000	52,470000
1,161084	-660,451301	520,703	-0,354260	22,300000	52,470000
1,098099	-687,460660	523,859	-0,365658	22,300000	52,470000
1,035064	-704,946220	527,017	-0,373037	22,300000	52,480000
0,972091	-722,918904	530,176	-0,380622	22,290000	52,490000
0,909088	-716,241484	533,330	-0,377804	22,290000	52,490000
0,846051	0,078680	536,484	-0,075517	22,300000	52,455000
0,783092	-0,093722	539,638	-0,075589	22,300000	52,455000
0,720082	0,047440	542,789	-0,075530	22,310000	52,495000
0,672048	0,173560	545,196	-0,075477	22,310000	52,495000

X-Pos [um]	Y-Pos [um]
0,000256	0,000494

POC
2,178136
0,738264	0,157361	4,069	-0,075364	22,310000	52,495000
0,801288	-0,195544	7,224	-0,075513	22,300000	52,480000
0,864257	0,086780	10,376	-0,075394	22,300000	52,480000
0,927284	0,070581	13,532	-0,075401	22,300000	52,480000
0,990310	-0,085623	16,686	-0,075467	22,310000	52,495000
1,053301	-0,242984	19,839	-0,075533	22,310000	52,480000
1,116342	-0,234884	22,993	-0,075530	22,300000	52,495000
1,179271	-0,289266	26,144	-0,075553	22,300000	52,470000
1,242288	-0,156204	29,300	-0,075497	22,300000	52,470000
1,305290	-0,258025	32,452	-0,075540	22,310000	52,470000
1,368281	-0,054382	35,609	-0,075454	22,310000	52,520000
1,431271	0,000000	38,763	-0,075431	22,310000	52,520000
1,494236	-0,203643	41,919	-0,075517	22,310000	52,480000
1,557258	-0,101822	45,077	-0,075474	22,300000	52,495000
1,620261	-0,249926	48,232	-0,075536	22,300000	52,480000
1,683318	-0,108764	51,387	-0,075477	22,310000	52,480000
1,746252	-8,676827	54,542	-0,079092	22,300000	52,510000
1,809273	-229,541941	57,702	-0,172297	22,300000	52,510000
1,872259	-196,623454	60,853	-0,158406	22,310000	52,480000
1,935257	-159,197043	64,010	-0,142612	22,300000	52,480000
1,998218	-117,937278	67,161	-0,125200	22,310000	52,480000
2,061166	-79,430169	70,315	-0,108950	22,300000	52,470000
2,124227	-38,319665	73,469	-0,091602	22,300000	52,510000
2,187268	3,339288	76,627	-0,074021	22,300000	52,480000
2,250228	47,820322	79,783	-0,055250	22,310000	52,440000
2,313196	88,914627	82,937	-0,037909	22,300000	52,495000
2,346196	110,617687	86,089	-0,028750	22,300000	52,480000
2,346165	108,109171	89,245	-0,029809	22,300000	52,510000
2,346236	106,628129	92,404	-0,030434	22,300000	52,510000
2,328263	93,884219	95,560	-0,035812	22,300000	52,510000
2,340229	101,157527	98,599	-0,032742	22,300000	52,495000
2,403206	146,476276	101,757	-0,013618	22,290000	52,475000
2,466245	188,770457	104,916	0,004230	22,290000	52,475000
2,514208	223,194285	108,067	0,018757	22,310000	52,495000
2,514231	220,294681	111,225	0,017534	22,300000	52,520000
2,514122	218,859921	114,383	0,016928	22,320000	52,495000
2,511256	216,172060	117,537	0,015794	22,290000	52,505000
2,448218	167,043098	120,690	-0,004938	22,310000	52,455000
2,472270	184,130628	123,729	0,002272	22,300000	52,495000
2,535260	230,899178	126,886	0,022009	22,290000	52,505000
2,598183	278,946284	130,042	0,042285	22,310000	52,480000
2,661193	321,992558	133,202	0,060450	22,290000	52,490000
2,682214	336,156185	136,355	0,066427	22,310000	52,480000
2,682208	334,470342	139,514	0,065716	22,310000	52,480000
2,682286	333,278566	142,671	0,065213	22,290000	52,450000
2,652132	309,020707	145,827	0,054976	22,300000	52,495000
2,589241	263,669561	148,982	0,035838	22,300000	52,455000
2,583201	258,190860	152,034	0,033526	22,300000	52,520000
2,646169	306,433510	155,194	0,053884	22,300000	52,520000
2,709236	353,265699	158,346	0,073647	22,310000	52,520000
2,772173	398,773049	161,499	0,092852	22,300000	52,520000
2,835223	444,397262	164,657	0,112105	22,310000	52,520000
2,850217	452,831106	167,814	0,115664	22,290000	52,515000
2,850224	451,217001	170,966	0,114983	22,290000	52,515000
2,850169	450,299448	174,122	0,114596	22,310000	52,495000
2,814209	424,183344	177,277	0,103575	22,300000	52,480000
2,751128	375,251083	180,430	0,082925	22,310000	52,480000
2,688305	325,824756	183,585	0,062067	22,290000	52,505000
2,736184	364,779649	186,629	0,078506	22,300000	52,480000
2,799274	412,943619	189,785	0,098832	22,300000	52,510000
2,862222	457,636395	192,942	0,117692	22,300000	52,495000
2,925192	503,770873	196,097	0,137161	22,310000	52,480000
2,988197	550,217760	199,253	0,156761	22,290000	52,505000
3,018186	572,439185	202,410	0,166139	22,290000	52,490000
3,018141	571,278649	205,567	0,165649	22,310000	52,495000
3,018155	570,377296	208,723	0,165269	22,310000	52,510000
2,997157	553,197201	211,879	0,158019	22,300000	52,495000
2,934178	506,819739	215,033	0,138447	22,300000	52,495000
2,871162	456,155352	218,187	0,117067	22,300000	52,495000
2,808250	411,352655	221,340	0,098160	22,290000	52,490000
2,868253	457,017365	224,387	0,117431	22,300000	52,480000
2,931151	502,547856	227,547	0,136645	22,320000	52,510000
2,994173	549,857912	230,704	0,156609	22,310000	52,520000
3,057230	597,340371	233,859	0,176647	22,320000	52,480000
3,120150	643,489892	237,013	0,196122	22,310000	52,495000
3,183182	689,962233	240,172	0,215733	22,300000	52,470000
3,186158	692,399011	243,328	0,216762	22,290000	52,465000
3,186222	691,364596	246,485	0,216325	22,310000	52,495000
3,186188	690,721268	249,643	0,216054	22,290000	52,505000
3,138161	653,287915	252,798	0,200257	22,290000	52,505000
3,075158	606,040340	255,952	0,180318	22,290000	52,465000
3,012132	555,876962	259,109	0,159149	22,310000	52,510000
2,949228	511,075422	262,267	0,140243	22,300000	52,495000
2,979176	533,774715	265,302	0,149822	22,300000	52,495000
3,042192	582,808797	268,457	0,170515	22,300000	52,480000
3,105165	628,802114	271,612	0,189924	22,300000	52,455000
3,168162	676,934843	274,766	0,210236	22,290000	52,490000
3,231192	723,524048	277,920	0,229896	22,310000	52,470000
3,294120	771,907861	281,074	0,250314	22,300000	52,480000
3,354130	816,175994	284,229	0,268996	22,300000	52,480000
3,354130	813,793598	287,386	0,267990	22,310000	52,480000
3,354118	812,711743	290,541	0,267534	22,310000	52,510000
3,354109	811,943452	293,697	0,267209	22,300000	52,510000
3,300102	769,611087	296,853	0,249345	22,300000	52,510000
3,237145	720,145420	300,006	0,228471	22,300000	52,480000
3,174141	674,222684	303,162	0,209091	22,310000	52,520000
3,111126	627,116271	306,319	0,189212	22,300000	52,480000
3,069212	591,807289	309,354	0,174312	22,300000	52,495000
3,132210	644,532407	312,511	0,196562	22,300000	52,510000
3,195160	690,926068	315,667	0,216140	22,300000	52,470000
3,258124	738,737133	318,824	0,236316	22,300000	52,480000
3,321096	785,772965	321,982	0,256166	22,290000	52,530000
3,384140	832,997399	325,141	0,276094	22,300000	52,520000
3,447086	880,110754	328,301	0,295976	22,300000	52,510000
3,509992	927,491391	331,457	0,315971	22,290000	52,505000
3,522069	936,191360	334,614	0,319642	22,300000	52,510000
3,522064	935,023882	337,771	0,319149	22,300000	52,535000
3,522046	934,436093	340,924	0,318901	22,300000	52,535000
3,483065	905,090621	344,079	0,306518	22,310000	52,535000
3,420122	855,734875	347,237	0,285689	22,310000	52,535000
3,357175	805,124870	350,398	0,264332	22,290000	52,465000
3,294107	759,320155	353,552	0,245002	22,290000	52,505000
3,231114	711,264949	356,704	0,224723	22,300000	52,510000
3,201202	688,433751	359,742	0,215088	22,300000	52,495000
3,264149	737,389153	362,897	0,235748	22,300000	52,545000
3,327130	785,961567	366,052	0,256245	22,300000	52,520000
3,390118	834,916969	369,210	0,276904	22,290000	52,465000
3,453068	882,807872	372,365	0,297114	22,300000	52,480000
3,516129	929,913128	375,519	0,316993	22,310000	52,520000
3,579057	975,584780	378,674	0,336266	22,300000	52,520000
3,642132	1022,746732	381,831	0,356168	22,290000	52,515000
3,690014	1060,321247	384,986	0,372025	22,300000	52,510000
3,690040	1058,659703	388,145	0,371324	22,300000	52,495000
3,690038	1057,594046	391,302	0,370874	22,300000	52,495000
3,687065	1056,653353	394,457	0,370477	22,300000	52,495000
3,624078	1006,341871	397,611	0,349246	22,300000	52,495000
[...]
2,128613	-34,949135	73,487	-0,090172	22,300000	52,560000
2,191618	6,599896	76,641	-0,072639	22,310000	52,535000
2,254670	49,135904	79,797	-0,054688	22,310000	52,535000
2,317655	88,874130	82,953	-0,037919	22,300000	52,535000
2,350696	111,299198	86,109	-0,028456	22,300000	52,535000
2,350672	108,971184	89,268	-0,029438	22,310000	52,535000
2,350654	107,575765	92,423	-0,030027	22,310000	52,545000
2,332643	92,167136	95,579	-0,036529	22,300000	52,560000
2,344623	102,136404	98,618	-0,032322	22,300000	52,535000
2,407700	145,323839	101,775	-0,014097	22,310000	52,520000
2,470657	189,325848	104,928	0,004472	22,300000	52,545000
2,518630	223,616614	108,080	0,018942	22,310000	52,560000
2,518626	220,976192	111,233	0,017828	22,310000	52,560000
2,518651	219,510191	114,387	0,017209	22,300000	52,545000
2,515592	216,179003	117,544	0,015804	22,310000	52,560000
2,452548	168,038174	120,700	-0,004512	22,310000	52,575000
2,476673	185,360588	123,745	0,002798	22,310000	52,545000
2,539638	234,512691	126,900	0,023541	22,300000	52,535000
2,602632	277,792691	130,056	0,041805	22,310000	52,560000
2,665645	322,564148	133,213	0,060698	22,300000	52,575000
2,686652	337,463668	136,370	0,066986	22,300000	52,575000
2,686635	335,409879	139,523	0,066119	22,300000	52,585000
2,686656	334,163720	142,677	0,065593	22,290000	52,570000
2,656608	312,774224	145,831	0,056567	22,300000	52,545000
2,593633	262,298439	148,986	0,035266	22,310000	52,535000
2,587687	259,264616	152,027	0,033986	22,310000	52,575000
2,650657	307,891412	155,185	0,054506	22,290000	52,570000
2,713648	354,668061	158,344	0,074246	22,320000	52,545000
2,776703	398,051040	161,504	0,092554	22,310000	52,560000
2,839710	443,433427	164,657	0,111705	22,300000	52,535000
2,854640	454,515792	167,816	0,116382	22,310000	52,575000
2,854582	452,995409	170,971	0,115740	22,290000	52,540000
2,854607	452,172736	174,127	0,115393	22,300000	52,560000
2,818655	424,010941	177,281	0,103509	22,310000	52,545000
2,755630	375,187444	180,434	0,082905	22,310000	52,560000
2,692623	327,588122	183,591	0,062818	22,300000	52,545000
2,740632	364,113179	186,646	0,078232	22,310000	52,575000
2,803640	414,252259	189,801	0,099391	22,310000	52,545000
2,866623	459,391662	192,959	0,118439	22,290000	52,530000
2,929630	505,643004	196,119	0,137958	22,300000	52,545000
2,992574	551,628221	199,272	0,157363	22,310000	52,545000
3,022628	574,241891	202,424	0,166906	22,310000	52,545000
3,022608	573,120696	205,581	0,166433	22,310000	52,535000
3,022628	572,086280	208,737	0,165997	22,300000	52,545000
3,001609	557,170561	211,894	0,159702	22,300000	52,535000
2,938643	508,112180	215,051	0,139000	22,310000	52,575000
2,875632	460,449219	218,209	0,118886	22,300000	52,585000
2,812667	413,186602	221,362	0,098941	22,300000	52,575000
2,872593	456,851905	224,401	0,117368	22,300000	52,575000
2,935690	505,040173	227,561	0,137703	22,300000	52,520000
2,998627	552,317832	230,715	0,157654	22,310000	52,545000
3,061630	600,044431	233,872	0,177795	22,310000	52,575000
3,124578	647,550031	237,026	0,197842	22,310000	52,560000
3,187619	693,973776	240,182	0,217433	22,300000	52,545000
3,190555	694,617104	243,341	0,217705	22,300000	52,560000
3,190554	693,433427	246,495	0,217205	22,310000	52,535000
3,190523	692,735717	249,650	0,216911	22,310000	52,575000
3,142582	656,978951	252,808	0,201821	22,310000	52,560000
3,079538	605,781157	255,968	0,180216	22,310000	52,560000
3,016560	557,953893	259,123	0,160033	22,310000	52,545000
2,953559	513,058631	262,275	0,141087	22,310000	52,545000
2,983554	534,440027	265,320	0,150110	22,300000	52,545000
3,046572	582,495233	268,474	0,170389	22,300000	52,560000
3,109587	630,846647	271,627	0,190793	22,310000	52,560000
3,172569	678,322164	274,785	0,210828	22,310000	52,560000
3,235580	726,423652	277,943	0,231127	22,300000	52,575000
3,298512	773,646929	281,096	0,251055	22,300000	52,535000
3,358510	818,064324	284,253	0,269799	22,300000	52,575000
3,358462	816,090371	287,409	0,268966	22,290000	52,555000
3,358504	814,913637	290,560	0,268470	22,300000	52,535000
3,358484	814,545690	293,715	0,268314	22,300000	52,560000
3,304483	772,213326	296,869	0,250450	22,300000	52,575000
3,241576	722,895762	300,024	0,229638	22,290000	52,540000
3,178538	677,114188	303,183	0,210318	22,310000	52,560000
3,115568	628,542932	306,343	0,189821	22,310000	52,560000
3,073564	593,938602	309,382	0,175218	22,300000	52,520000
3,136551	644,266282	312,537	0,196457	22,300000	52,585000
3,199570	695,572840	315,690	0,218108	22,300000	52,545000
3,262589	741,002666	318,845	0,237279	22,300000	52,585000
3,325575	790,867521	322,003	0,258322	22,300000	52,560000
3,388531	835,512857	325,159	0,277163	22,290000	52,570000
3,451548	885,423995	328,313	0,298225	22,310000	52,575000
3,514540	931,888237	331,465	0,317833	22,300000	52,560000
3,526489	938,723017	334,621	0,320717	22,300000	52,560000
3,526543	937,624963	337,775	0,320254	22,310000	52,600000
3,526487	936,880970	340,930	0,319940	22,300000	52,545000
3,487511	905,920237	344,082	0,306875	22,310000	52,575000
3,424490	856,933594	347,241	0,286202	22,300000	52,520000
3,361602	808,180678	350,397	0,265628	22,290000	52,540000
3,298551	762,086697	353,553	0,246177	22,300000	52,560000
3,235605	712,847814	356,709	0,225398	22,300000	52,575000
3,205591	691,528899	359,744	0,216401	22,310000	52,560000
3,268596	741,433094	362,903	0,237461	22,300000	52,575000
3,331606	787,731876	366,063	0,256999	22,300000	52,535000
3,394625	838,647345	369,221	0,278485	22,310000	52,545000
3,457549	883,817989	372,372	0,297547	22,290000	52,570000
3,520526	931,331689	375,529	0,317598	22,310000	52,545000
3,583555	980,475692	378,683	0,338337	22,310000	52,560000
3,646525	1027,974350	381,837	0,358381	22,310000	52,560000
3,694537	1062,876046	384,992	0,373110	22,300000	52,545000
3,694476	1061,089538	388,144	0,372356	22,300000	52,545000
3,694507	1060,290007	391,303	0,372019	22,310000	52,575000
3,691507	1058,965168	394,460	0,371459	22,290000	52,555000
3,628477	1008,778649	397,613	0,350281	22,310000	52,575000
3,565478	958,199885	400,768	0,328937	22,300000	52,560000
3,502515	909,377546	403,924	0,308333	22,300000	52,535000
3,439572	863,995159	407,083	0,289182	22,310000	52,560000
3,376600	814,333947	410,237	0,268225	22,310000	52,560000
3,313562	766,710327	413,389	0,248128	22,310000	52,535000
3,250580	722,041849	416,546	0,229278	22,300000	52,545000
3,187577	674,237726	419,703	0,209104	22,310000	52,560000
3,124639	627,061889	422,857	0,189196	22,310000	52,535000
3,061566	579,210327	426,012	0,169003	22,300000	52,575000
2,998617	535,318239	429,172	0,150480	22,310000	52,575000
2,935616	489,246242	432,327	0,131038	22,300000	52,545000
2,872620	442,798199	435,482	0,111437	22,310000	52,585000
2,809702	395,417561	438,639	0,091442	22,290000	52,595000
2,746598	348,907037	441,793	0,071815	22,300000	52,545000
2,683587	305,054289	444,950	0,053309	22,310000	52,545000
2,620653	258,927910	448,105	0,033844	22,300000	52,575000
2,557637	214,579939	451,263	0,015129	22,290000	52,540000
2,494623	168,548439	454,422	-0,004296	22,310000	52,560000
2,431681	125,085623	457,577	-0,022638	22,300000	52,560000
2,368624	78,724359	460,731	-0,042202	22,310000	52,520000
2,305615	36,886062	463,884	-0,059858	22,300000	52,585000
2,242642	-6,066490	467,041	-0,077984	22,300000	52,535000
2,179716	-51,135312	470,194	-0,097003	22,310000	52,545000
2,116668	-93,428336	473,350	-0,114851	22,290000	52,570000
2,053697	-136,302207	476,503	-0,132943	22,300000	52,535000
1,990670	-178,102322	479,654	-0,150583	22,300000	52,585000
1,927618	-221,242317	482,811	-0,168788	22,300000	52,545000
1,864664	-260,299032	485,967	-0,185270	22,310000	52,600000
1,801650	-301,848064	489,119	-0,202804	22,300000	52,520000
1,738673	-339,031491	492,274	-0,218495	22,300000	52,520000
1,675656	-383,402603	495,430	-0,237220	22,300000	52,575000
1,612670	-418,900187	498,583	-0,252200	22,300000	52,560000
1,549688	-457,730117	501,738	-0,268586	22,300000	52,575000
1,486710	-497,374620	504,893	-0,285316	22,300000	52,575000
1,423677	-529,212409	508,052	-0,298751	22,300000	52,560000
1,360721	-564,192785	511,209	-0,313513	22,310000	52,585000
1,297744	-600,231876	514,361	-0,328722	22,300000	52,545000
1,234711	-628,198126	517,518	-0,340523	22,300000	52,585000
1,171705	-652,926911	520,675	-0,350959	22,300000	52,585000
1,108707	-679,888829	523,832	-0,362337	22,300000	52,585000
1,045735	-704,046023	526,988	-0,372531	22,300000	52,575000
0,982720	-720,089881	530,146	-0,379302	22,300000	52,575000
0,919739	-717,511941	533,303	-0,378214	22,310000	52,575000
0,856742	-0,259182	536,461	-0,075533	22,310000	52,560000
0,793748	-0,431585	539,614	-0,075606	22,310000	52,585000
0,730737	-0,093722	542,772	-0,075463	22,300000	52,545000
0,682707	0,118021	545,179	-0,075374	22,300000	52,545000