File: Nanoindentation Datenauswertung/data/PDMS/13.09/EM-PDMS-150-10-150-20nms-3um-5
Quasi static measurement routine
Tip parameters (shape,radius, material...)
13.09.2022

Piezo position[nm]	MEMS displ.[nm]	Time[ms]	Cap [pf]	Temp [°C]	Rh [%]
eoh
0,669975	-0,023141	1,060	-0,075665	22,300000	52,140000
0,705963	0,070581	2,864	-0,075625	22,300000	52,180000
0,741988	0,023141	4,668	-0,075646	22,300000	52,165000
0,777955	0,062481	6,468	-0,075629	22,300000	52,165000
0,813991	-0,062481	8,271	-0,075682	22,300000	52,165000
0,849972	-0,188602	10,074	-0,075735	22,290000	52,135000
0,886000	0,062481	11,875	-0,075629	22,290000	52,135000
0,921954	-0,172403	13,676	-0,075728	22,290000	52,160000
0,957967	-0,086780	15,481	-0,075692	22,300000	52,165000
0,993994	-0,149261	17,284	-0,075718	22,300000	52,165000
1,030016	-0,172403	19,086	-0,075728	22,300000	52,180000
1,065976	-0,086780	20,888	-0,075692	22,300000	52,180000
1,102001	-0,062481	22,688	-0,075682	22,300000	52,155000
1,137966	-0,118021	24,493	-0,075705	22,300000	52,155000
1,173971	-0,126120	26,293	-0,075708	22,300000	52,155000
1,209940	0,023141	28,095	-0,075646	22,300000	52,195000
1,245957	-0,242984	29,897	-0,075758	22,300000	52,195000
1,281968	-0,251083	31,702	-0,075761	22,300000	52,180000
1,317963	-0,446627	33,504	-0,075844	22,300000	52,180000
1,353928	0,077523	35,308	-0,075623	22,300000	52,165000
1,389964	-0,267282	37,112	-0,075768	22,300000	52,165000
1,425984	-0,195544	38,914	-0,075738	22,290000	52,200000
1,461977	-0,352905	40,720	-0,075804	22,300000	52,165000
1,497989	-0,313564	42,522	-0,075788	22,300000	52,165000
1,534032	-0,141162	44,324	-0,075715	22,300000	52,165000
1,569997	-0,337863	46,126	-0,075798	22,300000	52,155000
1,605962	-0,016199	47,932	-0,075662	22,300000	52,155000
1,641908	0,038183	49,733	-0,075639	22,300000	52,140000
1,677974	-0,337863	51,533	-0,075798	22,290000	52,150000
1,713915	-6,371955	53,334	-0,078344	22,290000	52,150000
1,749955	-9,617521	55,136	-0,079714	22,300000	52,180000
1,785890	-11,765033	56,939	-0,080620	22,300000	52,140000
1,821923	-213,271299	58,744	-0,165656	22,300000	52,140000
1,857939	-197,869613	60,546	-0,159156	22,310000	52,155000
1,893912	-177,225267	62,348	-0,150444	22,310000	52,155000
1,929952	-154,016865	64,152	-0,140650	22,300000	52,180000
1,965923	-132,258266	65,953	-0,131468	22,300000	52,140000
2,001889	-110,594546	67,756	-0,122326	22,300000	52,140000
2,037903	-87,448626	69,559	-0,112559	22,310000	52,195000
2,073927	-64,601229	71,360	-0,102917	22,300000	52,195000
2,109903	-39,041673	73,164	-0,092131	22,300000	52,195000
2,145912	-16,334281	74,968	-0,082548	22,300000	52,155000
2,181940	6,756100	76,771	-0,072804	22,300000	52,195000
2,217895	33,146429	78,574	-0,061667	22,300000	52,180000
2,253928	57,295524	80,375	-0,051477	22,300000	52,180000
2,289938	80,879971	82,179	-0,041524	22,300000	52,180000
2,325943	104,612522	83,982	-0,031509	22,290000	52,160000
2,361914	128,142587	85,786	-0,021579	22,290000	52,160000
2,397919	152,378462	87,587	-0,011352	22,300000	52,165000
2,433970	176,715001	89,388	-0,001082	22,300000	52,205000
2,469940	203,042848	91,192	0,010029	22,300000	52,180000
2,505968	225,740984	92,995	0,019607	22,300000	52,180000
2,541934	249,937519	94,798	0,029818	22,300000	52,180000
2,577913	274,007933	96,598	0,039976	22,300000	52,180000
2,613916	298,406953	98,400	0,050272	22,300000	52,180000
2,649947	325,345731	100,205	0,061641	22,300000	52,155000
2,685936	348,938278	102,009	0,071597	22,300000	52,155000
2,721927	373,345398	103,811	0,081896	22,290000	52,160000
2,757878	398,412045	105,614	0,092475	22,290000	52,200000
2,793861	423,242650	107,418	0,102953	22,300000	52,180000
2,829901	449,147012	109,222	0,113885	22,300000	52,180000
2,865908	475,090714	111,025	0,124833	22,290000	52,190000
2,901920	499,732718	112,828	0,135232	22,290000	52,190000
2,937910	527,432844	114,635	0,146921	22,300000	52,165000
2,973836	552,835040	116,439	0,157641	22,300000	52,165000
3,009872	577,243317	118,244	0,167941	22,300000	52,165000
3,045849	602,316906	120,047	0,178522	22,300000	52,155000
3,081868	630,352581	121,850	0,190354	22,300000	52,155000
3,117889	656,547366	123,654	0,201408	22,300000	52,180000
3,153845	680,218593	125,454	0,211397	22,300000	52,180000
3,189839	706,122954	127,254	0,222329	22,300000	52,180000
3,225788	732,112939	129,055	0,233296	22,290000	52,150000
3,261800	758,095981	130,856	0,244261	22,300000	52,195000
3,297791	784,588131	132,658	0,255441	22,300000	52,195000
3,333848	810,602414	134,462	0,266419	22,300000	52,195000
3,369712	837,314407	136,264	0,277691	22,300000	52,140000
3,405790	864,912711	138,066	0,289338	22,300000	52,180000
3,441768	888,951885	139,869	0,299482	22,300000	52,165000
3,477731	917,755850	141,674	0,311638	22,300000	52,165000
3,513786	943,205485	143,479	0,322377	22,300000	52,220000
3,549714	969,878138	145,281	0,333633	22,300000	52,165000
3,585738	994,490059	147,085	0,344020	22,290000	52,175000
3,621754	1020,151437	148,888	0,354849	22,290000	52,190000
3,657791	1048,948460	150,690	0,367001	22,300000	52,180000
3,669789	1056,371029	152,492	0,370133	22,300000	52,180000
3,669644	1055,171153	154,295	0,369627	22,290000	52,175000
3,669778	1054,434103	156,100	0,369316	22,290000	52,175000
3,669684	1053,540849	157,905	0,368939	22,300000	52,180000
3,669776	1053,008599	159,707	0,368714	22,300000	52,140000
3,666733	1052,334031	161,510	0,368430	22,300000	52,140000
3,630728	1023,364605	163,312	0,356205	22,300000	52,180000
3,594721	994,976026	165,114	0,344225	22,290000	52,160000
3,558770	966,853571	166,916	0,332357	22,290000	52,160000
3,522778	938,989142	168,722	0,320598	22,300000	52,155000
3,486716	911,398937	170,524	0,308955	22,300000	52,155000
3,450767	883,018457	172,327	0,296979	22,290000	52,175000
3,414816	856,345805	174,132	0,285723	22,290000	52,175000
3,378852	829,241567	175,934	0,274285	22,300000	52,195000
3,342776	802,184769	177,735	0,262867	22,290000	52,160000
3,306837	773,387746	179,536	0,250714	22,290000	52,160000
3,270855	748,016791	181,340	0,240008	22,300000	52,165000
3,234823	720,301624	183,141	0,228312	22,300000	52,155000
3,198850	694,459743	184,945	0,217407	22,290000	52,160000
3,162843	667,693369	186,749	0,206111	22,290000	52,160000
3,126880	640,158703	188,553	0,194492	22,300000	52,155000
3,090864	613,015125	190,356	0,183037	22,300000	52,155000
3,054871	585,692202	192,158	0,171507	22,290000	52,190000
3,018861	561,841630	193,962	0,161442	22,290000	52,190000
2,982822	535,302040	195,764	0,150242	22,290000	52,175000
2,946859	509,107255	197,571	0,139188	22,300000	52,180000
2,910952	480,224609	199,375	0,127000	22,300000	52,180000
2,874859	456,216677	201,176	0,116868	22,300000	52,180000
2,838848	427,733218	202,978	0,104848	22,300000	52,205000
2,802901	404,306132	204,782	0,094962	22,300000	52,195000
2,766910	375,712752	206,587	0,082896	22,300000	52,205000
2,730884	351,540516	208,390	0,072695	22,300000	52,205000
2,694856	325,792358	210,192	0,061829	22,300000	52,155000
2,658880	297,137654	211,993	0,049737	22,300000	52,165000
2,622934	271,327014	213,795	0,038845	22,300000	52,165000
2,586899	246,347147	215,597	0,028303	22,290000	52,190000
2,550866	220,262283	217,401	0,017295	22,290000	52,190000
2,514956	195,769541	219,203	0,006959	22,300000	52,180000
2,478955	171,313824	221,006	-0,003361	22,300000	52,140000
2,442932	145,778566	222,811	-0,014137	22,290000	52,160000
2,406919	120,022308	224,612	-0,025006	22,290000	52,200000
2,370917	95,121122	226,416	-0,035514	22,290000	52,200000
2,334955	69,052457	228,219	-0,046515	22,300000	52,155000
2,298885	43,296199	230,021	-0,057384	22,300000	52,220000
2,262920	21,679919	231,824	-0,066506	22,300000	52,165000
2,226890	-5,055215	233,627	-0,077789	22,300000	52,165000
2,190913	-27,723267	235,430	-0,087354	22,290000	52,160000
2,154865	-53,573247	237,233	-0,098263	22,310000	52,165000
2,118893	-76,929752	239,035	-0,108120	22,310000	52,165000
2,082928	-100,256174	240,840	-0,117963	22,300000	52,140000
2,046945	-125,282324	242,645	-0,128524	22,300000	52,140000
2,010893	-147,668052	244,446	-0,137971	22,300000	52,140000
1,974914	-170,891495	246,248	-0,147771	22,290000	52,160000
1,938971	-195,212992	248,053	-0,158035	22,290000	52,200000
1,902930	-219,487050	249,854	-0,168279	22,290000	52,225000
1,866917	-244,035332	251,658	-0,178638	22,290000	52,225000
1,830983	-268,184427	253,463	-0,188829	22,300000	52,155000
1,794941	-290,695118	255,266	-0,198329	22,300000	52,155000
1,758973	-313,463835	257,068	-0,207937	22,300000	52,195000
1,722974	-337,699709	258,873	-0,218165	22,300000	52,205000
1,686907	-357,435760	260,674	-0,226493	22,310000	52,165000
1,650944	-378,511691	262,477	-0,235387	22,310000	52,165000
1,614972	-402,856330	264,282	-0,245661	22,310000	52,180000
1,578975	-423,869779	266,085	-0,254528	22,300000	52,180000
1,542971	-446,859495	267,890	-0,264230	22,290000	52,175000
1,506929	-466,516865	269,692	-0,272525	22,310000	52,180000
1,470911	-486,479700	271,494	-0,280950	22,290000	52,160000
1,434983	-508,198960	273,295	-0,290115	22,290000	52,160000
1,398986	-525,795598	275,098	-0,297541	22,290000	52,190000
1,363036	-549,135904	276,900	-0,307391	22,310000	52,195000
1,326904	-567,837539	278,702	-0,315283	22,300000	52,165000
1,291009	-585,309214	280,506	-0,322656	22,300000	52,165000
1,254986	-602,551790	282,308	-0,329932	22,290000	52,135000
1,218955	-616,009608	284,110	-0,335611	22,300000	52,180000
1,182960	-633,598147	285,914	-0,343034	22,300000	52,165000
1,146945	-652,064897	287,716	-0,350827	22,290000	52,150000
1,111003	-664,880545	289,520	-0,356235	22,300000	52,180000
1,074998	-677,256507	291,322	-0,361458	22,290000	52,200000
1,038982	-686,293182	293,124	-0,365271	22,300000	52,195000
1,002932	-696,718333	294,927	-0,369670	22,300000	52,195000
0,966989	-703,074089	296,730	-0,372353	22,290000	52,160000
0,931038	-703,277733	298,535	-0,372438	22,290000	52,160000
0,895049	-647,055965	300,338	-0,348713	22,300000	52,205000
0,858976	-0,227942	302,145	-0,075751	22,300000	52,180000
0,822979	-0,101822	303,948	-0,075698	22,300000	52,180000
0,787017	0,133062	305,750	-0,075599	22,290000	52,190000
0,751005	0,376046	307,555	-0,075497	22,290000	52,175000
0,714957	0,344805	309,360	-0,075510	22,300000	52,205000
0,678944	0,038183	311,162	-0,075639	22,310000	52,195000
0,670045	0,156204	311,614	-0,075589	22,310000	52,195000