File: Nanoindentation Datenauswertung/data/PDMS_10-1/test-4
Quasi static measurement routine
Tip parameters (shape,radius, material...)
16.09.2022

Piezo position[nm]	MEMS displ.[nm]	Time[ms]	Cap [pf]	Temp [°C]	Rh [%]
eoh
0,608144	-0,415386	1,068	-0,075808	22,080000	48,455000
0,644125	-0,149261	2,873	-0,075695	22,090000	48,440000
0,680091	-0,101822	4,682	-0,075675	22,090000	48,505000
0,716096	-0,109921	6,483	-0,075679	22,090000	48,505000
0,752121	-0,149261	8,288	-0,075695	22,090000	48,480000
0,788078	-0,085623	10,093	-0,075668	22,090000	48,480000
0,824088	-0,093722	11,896	-0,075672	22,090000	48,455000
0,860113	-0,352905	13,701	-0,075781	22,090000	48,465000
0,896120	-0,156204	15,506	-0,075698	22,080000	48,480000
0,932120	-0,077523	17,309	-0,075665	22,090000	48,480000
0,968126	-0,149261	19,116	-0,075695	22,090000	48,505000
1,004090	-0,141162	20,923	-0,075692	22,090000	48,505000
1,040093	-0,093722	22,728	-0,075672	22,090000	48,480000
1,076084	-0,016199	24,532	-0,075639	22,080000	48,465000
1,112138	0,047440	26,338	-0,075612	22,080000	48,465000
1,148127	-0,101822	28,142	-0,075675	22,080000	48,465000
1,184095	-0,109921	29,947	-0,075679	22,090000	48,490000
1,220085	-0,313564	31,750	-0,075765	22,090000	48,505000
1,256125	-0,031241	33,552	-0,075646	22,090000	48,505000
1,292090	-0,046283	35,355	-0,075652	22,090000	48,490000
1,328153	-0,008099	37,160	-0,075636	22,080000	48,465000
1,364085	0,078680	38,968	-0,075599	22,090000	48,490000
1,400107	-0,469768	40,772	-0,075831	22,090000	48,480000
1,436136	-0,219842	42,578	-0,075725	22,080000	48,455000
1,472122	-0,211743	44,381	-0,075722	22,100000	48,455000
1,508073	-0,054382	46,184	-0,075655	22,100000	48,455000
1,544126	-0,627129	47,988	-0,075897	22,090000	48,480000
1,580092	-0,109921	49,792	-0,075679	22,080000	48,465000
1,616100	-0,211743	51,594	-0,075722	22,080000	48,465000
1,652133	0,149261	53,397	-0,075569	22,080000	48,480000
1,688050	-0,234884	55,201	-0,075731	22,080000	48,480000
1,724057	0,259182	57,009	-0,075523	22,090000	48,480000
1,760055	-0,133062	58,814	-0,075688	22,080000	48,480000
1,796128	-0,446627	60,624	-0,075821	22,080000	48,480000
1,832098	-0,321664	62,431	-0,075768	22,090000	48,455000
1,868094	-0,023141	64,236	-0,075642	22,090000	48,490000
1,904125	-0,242984	66,038	-0,075735	22,090000	48,490000
1,940085	-0,180502	67,841	-0,075708	22,090000	48,465000
1,976058	-0,124963	69,645	-0,075685	22,080000	48,480000
2,012086	-0,149261	71,451	-0,075695	22,080000	48,480000
2,048064	-0,164303	73,256	-0,075702	22,080000	48,455000
2,084029	-0,141162	75,060	-0,075692	22,080000	48,455000
2,120088	-0,046283	76,868	-0,075652	22,090000	48,465000
2,156058	-0,469768	78,670	-0,075831	22,090000	48,490000
2,192086	-0,149261	80,476	-0,075695	22,080000	48,480000
2,228040	-0,352905	82,303	-0,075781	22,080000	48,480000
2,264094	-0,328606	84,109	-0,075771	22,080000	48,480000
2,300078	-0,101822	85,912	-0,075675	22,080000	48,490000
2,336077	-0,180502	87,715	-0,075708	22,090000	48,480000
2,372029	-0,211743	89,520	-0,075722	22,080000	48,480000
2,408104	-0,116864	91,323	-0,075682	22,100000	48,490000
2,444112	-0,149261	93,129	-0,075695	22,100000	48,490000
2,480132	-0,282324	94,931	-0,075751	22,090000	48,465000
2,516038	-0,282324	96,736	-0,075751	22,090000	48,490000
2,552057	-0,392245	98,543	-0,075798	22,090000	48,490000
2,588092	-0,077523	100,350	-0,075665	22,090000	48,455000
2,624088	-0,289266	102,155	-0,075754	22,090000	48,455000
2,660070	0,008099	103,961	-0,075629	22,090000	48,455000
2,696026	-0,407287	105,767	-0,075804	22,090000	48,455000
2,732069	-203,653779	107,573	-0,161574	22,080000	48,480000
2,768051	-196,881480	109,378	-0,158716	22,090000	48,480000
2,804058	-178,729451	111,182	-0,151056	22,100000	48,480000
2,839991	-157,566739	112,985	-0,142125	22,090000	48,480000
2,876059	-137,814490	114,792	-0,133790	22,080000	48,480000
2,912045	-117,797273	116,595	-0,125343	22,090000	48,455000
2,948046	-97,206152	118,398	-0,116653	22,090000	48,455000
2,984062	-76,138320	120,199	-0,107763	22,090000	48,455000
3,020031	-53,164803	122,001	-0,098068	22,100000	48,480000
3,056055	-32,974026	123,805	-0,089547	22,090000	48,480000
3,092031	-11,349646	125,612	-0,080422	22,090000	48,465000
3,128042	10,745659	127,414	-0,071098	22,090000	48,465000
3,164029	33,671736	129,221	-0,061423	22,080000	48,480000
3,200012	56,418469	131,025	-0,051824	22,080000	48,480000
3,236004	77,392578	132,827	-0,042973	22,090000	48,480000
3,272000	101,039507	134,632	-0,032994	22,090000	48,480000
3,307995	122,304040	136,439	-0,024020	22,080000	48,465000
3,344003	145,699885	138,243	-0,014147	22,080000	48,465000
3,380026	168,133053	140,046	-0,004680	22,080000	48,465000
3,415989	192,156028	141,848	0,005458	22,090000	48,480000
3,451880	214,564897	143,655	0,014914	22,100000	48,490000
3,487946	237,976942	145,457	0,024794	22,090000	48,480000
3,523922	259,954227	147,260	0,034068	22,080000	48,490000
3,559919	284,362504	149,064	0,044369	22,090000	48,505000
3,595895	307,091880	150,868	0,053960	22,090000	48,480000
3,607899	313,832938	152,672	0,056805	22,090000	48,480000
3,607897	312,476859	154,480	0,056233	22,090000	48,480000
3,607899	311,685427	156,282	0,055899	22,090000	48,465000
3,607856	310,846555	158,084	0,055545	22,090000	48,465000
3,607884	310,619770	159,887	0,055449	22,090000	48,480000
3,603888	308,354238	161,693	0,054493	22,090000	48,440000
3,567900	281,241901	163,498	0,043052	22,080000	48,490000
3,531932	257,665553	165,302	0,033103	22,090000	48,465000
3,495939	233,258433	167,108	0,022803	22,100000	48,505000
3,459903	207,369113	168,908	0,011877	22,090000	48,480000
3,423917	184,929003	170,713	0,002408	22,090000	48,480000
3,387974	160,474443	172,516	-0,007912	22,090000	48,480000
3,351988	137,157277	174,323	-0,017752	22,090000	48,465000
3,315958	112,005008	176,130	-0,028366	22,090000	48,465000
3,279978	88,992150	177,938	-0,038078	22,090000	48,455000
3,244000	64,059723	179,742	-0,048599	22,090000	48,465000
3,208047	41,893837	181,544	-0,057953	22,090000	48,465000
3,171988	17,094472	183,347	-0,068418	22,100000	48,490000
3,135984	-6,176411	185,152	-0,078239	22,100000	48,490000
3,100008	-30,967676	186,956	-0,088701	22,090000	48,455000
3,064014	-53,297865	188,760	-0,098124	22,090000	48,480000
3,028042	-78,614438	190,562	-0,108808	22,090000	48,480000
2,991981	-100,952727	192,364	-0,118234	22,080000	48,480000
2,955961	-124,161128	194,167	-0,128028	22,080000	48,480000
2,920074	-148,929252	195,970	-0,138480	22,080000	48,490000
2,884051	-173,109588	197,772	-0,148685	22,080000	48,490000
2,847984	-196,999500	199,575	-0,158766	22,100000	48,490000
2,812018	-220,207901	201,378	-0,168560	22,080000	48,455000
2,776019	-243,886071	203,181	-0,178552	22,080000	48,455000
2,740096	-268,050207	204,988	-0,188750	22,080000	48,490000
2,704060	-289,856246	206,795	-0,197952	22,090000	48,480000
2,668062	-312,099656	208,600	-0,207338	22,090000	48,480000
2,632080	-336,319331	210,404	-0,217559	22,090000	48,455000
2,596079	-358,273475	212,209	-0,226824	22,090000	48,455000
2,560065	-381,741058	214,013	-0,236727	22,090000	48,490000
2,524036	-406,116938	215,817	-0,247014	22,090000	48,490000
2,488046	-427,647595	217,620	-0,256100	22,090000	48,465000
2,452052	-448,621705	219,426	-0,264951	22,080000	48,480000
2,416034	-470,458984	221,230	-0,274166	22,100000	48,465000
2,380048	-491,198210	223,033	-0,282918	22,090000	48,455000
2,344097	-514,006267	224,838	-0,292543	22,090000	48,455000
2,308052	-532,691702	226,643	-0,300428	22,090000	48,455000
2,272073	-554,575265	228,444	-0,309663	22,090000	48,455000
2,236086	-574,867863	230,248	-0,318227	22,080000	48,465000
2,200062	-595,976192	232,056	-0,327134	22,080000	48,465000
2,164087	-618,345722	233,862	-0,336574	22,090000	48,465000
2,128058	-638,104913	235,664	-0,344913	22,080000	48,480000
2,092047	-659,338205	237,468	-0,353873	22,090000	48,480000
2,056111	-680,735801	239,272	-0,362903	22,090000	48,480000
2,020079	-699,852821	241,076	-0,370970	22,090000	48,480000
1,984033	-716,994733	242,877	-0,378204	22,090000	48,480000
1,948100	-734,770716	244,679	-0,385706	22,090000	48,480000
1,912064	-752,398595	246,484	-0,393145	22,100000	48,490000
1,876074	-772,307048	248,290	-0,401546	22,100000	48,490000
1,840075	-788,641328	250,096	-0,408439	22,100000	48,490000
1,804110	-806,754017	251,898	-0,416083	22,090000	48,455000
1,768123	-824,265033	253,702	-0,423472	22,080000	48,480000
1,732069	-840,222110	255,507	-0,430206	22,080000	48,490000
1,696110	-856,227784	257,314	-0,436960	22,090000	48,480000
1,660110	-871,558890	259,119	-0,443430	22,100000	48,505000
1,624119	-879,914053	260,925	-0,446956	22,090000	48,465000
1,588097	-894,398188	262,728	-0,453068	22,090000	48,465000
1,552105	-905,716593	264,529	-0,457845	22,090000	48,490000
1,516121	-914,628305	266,333	-0,461605	22,090000	48,490000
1,480127	-926,534499	268,135	-0,466630	22,090000	48,490000
1,444126	-925,718769	269,936	-0,466286	22,090000	48,490000
1,408132	-917,952551	271,739	-0,463008	22,080000	48,455000
1,372169	-913,923652	273,543	-0,461308	22,080000	48,455000
1,336123	-905,058223	275,347	-0,457567	22,090000	48,455000
1,300111	-836,240651	277,153	-0,428526	22,090000	48,455000
1,264140	-0,909453	278,956	-0,076016	22,090000	48,440000
1,228104	-0,697710	280,762	-0,075927	22,080000	48,490000
1,192081	-0,658370	282,564	-0,075910	22,090000	48,480000
1,156137	-0,627129	284,366	-0,075897	22,090000	48,480000
1,120097	-0,336706	286,171	-0,075774	22,090000	48,480000
1,084119	-0,548449	287,975	-0,075864	22,090000	48,465000
1,048107	-0,532250	289,779	-0,075857	22,080000	48,490000
1,012149	-0,540349	291,582	-0,075860	22,080000	48,490000
0,976082	-0,720851	293,384	-0,075937	22,090000	48,465000
0,940114	-0,501009	295,185	-0,075844	22,090000	48,465000
0,904144	-0,469768	296,986	-0,075831	22,100000	48,440000
0,868115	-0,635228	298,787	-0,075900	22,090000	48,480000
0,832100	-0,305465	300,589	-0,075761	22,090000	48,480000
0,796130	-0,352905	302,392	-0,075781	22,090000	48,465000
0,760150	-0,454726	304,195	-0,075824	22,090000	48,465000
0,724152	-0,392245	306,000	-0,075798	22,080000	48,480000
0,688084	-0,352905	307,802	-0,075781	22,090000	48,465000
0,652127	-0,509108	309,604	-0,075847	22,090000	48,465000
0,616141	-0,392245	311,412	-0,075798	22,090000	48,480000
0,608103	-0,423486	311,812	-0,075811	22,090000	48,480000