File: Nanoindentation Datenauswertung/data/Saphir/AR-SA-450-1-450-3um-diff_LF-4x4-2
Quasi static measurement routine
Tip parameters (shape,radius, material...)
06.09.2022

Piezo position[nm]	MEMS displ.[nm]	Time[ms]	Cap [pf]	Temp [°C]	Rh [%]
eoh

X-Pos [um]	Y-Pos [um]
0,000637	0,001315

POC
2,131993
1,143960	0,213259	1,971	-0,078526	22,450000	48,810000
1,156987	0,213259	3,926	-0,078526	22,450000	48,770000
1,170009	0,142173	5,879	-0,078556	22,470000	48,810000
1,182941	0,323967	7,833	-0,078480	22,450000	48,810000
1,195981	0,323967	9,789	-0,078480	22,450000	48,810000
1,208914	-0,039622	11,741	-0,078632	22,450000	48,825000
1,221967	0,299495	13,692	-0,078490	22,460000	48,795000
1,234955	0,268030	15,645	-0,078503	22,460000	48,795000
1,247987	0,071086	17,596	-0,078586	22,460000	48,785000
1,260964	0,252881	19,548	-0,078510	22,460000	48,810000
1,273954	0,118866	21,504	-0,078566	22,460000	48,810000
1,286938	0,268030	23,455	-0,078503	22,460000	48,795000
1,299913	0,118866	25,409	-0,078566	22,460000	48,795000
1,312953	0,205101	27,362	-0,078530	22,450000	48,795000
1,325898	0,252881	29,314	-0,078510	22,450000	48,795000
1,338937	0,261038	31,270	-0,078506	22,450000	48,810000
1,351923	0,299495	33,222	-0,078490	22,450000	48,810000
1,365007	0,150330	35,179	-0,078553	22,470000	48,810000
1,377972	0,449825	37,135	-0,078427	22,470000	48,810000
1,390950	0,086236	39,088	-0,078580	22,460000	48,810000
1,403962	0,370581	41,040	-0,078460	22,460000	48,810000
1,416979	0,544218	42,990	-0,078388	22,450000	48,785000
1,429910	0,261038	44,943	-0,078506	22,460000	48,785000
1,442968	-0,173637	46,894	-0,078688	22,460000	48,785000
1,455947	0,347274	48,845	-0,078470	22,450000	48,795000
1,468929	0,330959	50,798	-0,078477	22,470000	48,785000
1,481944	0,205101	52,750	-0,078530	22,460000	48,785000
1,494954	0,284345	54,706	-0,078497	22,460000	48,785000
1,507975	0,229574	56,659	-0,078520	22,460000	48,795000
1,520958	0,181794	58,614	-0,078540	22,460000	48,795000
1,533978	-0,087401	60,565	-0,078652	22,460000	48,795000
1,546961	0,150330	62,522	-0,078553	22,440000	48,820000
1,559906	0,086236	64,472	-0,078580	22,460000	48,795000
1,572959	0,047779	66,424	-0,078596	22,460000	48,795000
1,585962	0,062929	68,379	-0,078589	22,450000	48,810000
1,598959	0,276188	70,332	-0,078500	22,460000	48,770000
1,611976	0,039622	72,284	-0,078599	22,460000	48,785000
1,624948	0,142173	74,238	-0,078556	22,460000	48,785000
1,637942	0,150330	76,191	-0,078553	22,460000	48,785000
1,650904	0,165480	78,142	-0,078546	22,460000	48,825000
1,663964	0,125858	80,095	-0,078563	22,460000	48,825000
1,676970	0,229574	82,048	-0,078520	22,460000	48,810000
1,689939	0,142173	83,999	-0,078556	22,460000	48,810000
1,702955	0,110708	85,951	-0,078569	22,460000	48,785000
1,715946	-0,181794	87,904	-0,078692	22,460000	48,785000
1,728937	0,221416	89,857	-0,078523	22,450000	48,795000
1,741933	0,102551	91,810	-0,078573	22,470000	48,850000
1,754948	0,150330	93,765	-0,078553	22,470000	48,850000
1,767947	0,094393	95,716	-0,078576	22,460000	48,785000
1,780928	0,102551	97,668	-0,078573	22,460000	48,785000
1,793935	-0,134015	99,619	-0,078672	22,460000	48,785000
1,806949	0,023307	101,570	-0,078606	22,460000	48,785000
1,819951	0,055937	103,523	-0,078592	22,460000	48,795000
1,832954	0,062929	105,480	-0,078589	22,450000	48,810000
1,845946	0,134015	107,433	-0,078560	22,450000	48,810000
1,858945	0,023307	109,386	-0,078606	22,460000	48,795000
1,871943	0,071086	111,339	-0,078586	22,460000	48,795000
1,884967	-0,150330	113,291	-0,078679	22,460000	48,825000
1,897922	0,000000	115,246	-0,078616	22,460000	48,810000
1,910968	-0,134015	117,199	-0,078672	22,460000	48,810000
1,923923	-0,039622	119,152	-0,078632	22,460000	48,810000
1,936939	-0,165480	121,108	-0,078685	22,460000	48,810000
1,949964	-0,196944	123,064	-0,078698	22,470000	48,825000
1,962962	-0,339117	125,016	-0,078758	22,460000	48,825000
1,975944	-0,395053	126,970	-0,078781	22,460000	48,825000
1,988941	-0,276188	128,922	-0,078731	22,460000	48,825000
2,001929	-0,481289	130,876	-0,078817	22,440000	48,790000
2,014925	-0,631619	132,831	-0,078880	22,460000	48,835000
2,027918	-0,552375	134,786	-0,078847	22,460000	48,825000
2,040922	-0,520911	136,741	-0,078834	22,470000	48,785000
2,053915	-0,868185	138,696	-0,078979	22,470000	48,785000
2,066963	-1,041822	140,648	-0,079052	22,450000	48,785000
2,079899	-44,088650	142,601	-0,097089	22,450000	48,825000
2,092957	-30,289752	144,552	-0,091307	22,460000	48,810000
2,105964	-17,588613	146,504	-0,085985	22,460000	48,810000
2,118957	-4,555349	148,458	-0,080524	22,470000	48,835000
2,131925	8,280970	150,412	-0,075146	22,450000	48,795000
2,144925	20,256097	152,363	-0,070128	22,450000	48,795000
2,157879	33,778807	154,317	-0,064462	22,450000	48,785000
2,170940	47,728036	156,268	-0,058618	22,460000	48,795000
2,183921	60,389553	158,221	-0,053312	22,460000	48,795000
2,196930	73,217715	160,178	-0,047938	22,460000	48,785000
2,209931	85,998098	162,132	-0,042583	22,460000	48,810000
2,222989	99,355329	164,089	-0,036986	22,470000	48,810000
2,235958	112,214956	166,040	-0,031598	22,460000	48,810000
2,248891	125,137511	167,992	-0,026183	22,460000	48,795000
2,256913	134,175958	169,947	-0,022396	22,460000	48,795000
2,245897	123,337047	171,900	-0,026937	22,450000	48,795000
2,232883	109,562621	173,852	-0,032709	22,460000	48,825000
2,219921	97,136504	175,806	-0,037916	22,470000	48,825000
2,206949	82,967025	177,758	-0,043853	22,470000	48,825000
2,193951	69,665731	179,710	-0,049426	22,460000	48,810000
2,180923	56,371429	181,664	-0,054996	22,460000	48,810000
2,167944	43,544432	183,618	-0,060371	22,470000	48,825000
2,154848	30,218666	185,572	-0,065954	22,470000	48,825000
2,141907	17,800707	187,524	-0,071157	22,460000	48,795000
2,128928	3,821180	189,480	-0,077015	22,450000	48,825000
2,115929	-8,674858	191,434	-0,082250	22,450000	48,825000
2,102952	-21,440092	193,387	-0,087599	22,460000	48,810000
2,089931	-35,799523	195,339	-0,093616	22,460000	48,810000
2,076895	-48,138238	197,291	-0,098786	22,460000	48,785000
2,063945	-61,589862	199,246	-0,104422	22,460000	48,785000
2,050917	-74,614969	201,200	-0,109879	22,460000	48,795000
2,037933	-88,279852	203,153	-0,115605	22,460000	48,795000
2,024889	-101,936577	205,107	-0,121327	22,460000	48,795000
2,011962	-114,503701	207,060	-0,126593	22,460000	48,795000
1,998924	-128,231513	209,013	-0,132345	22,460000	48,785000
1,985958	-141,493185	210,964	-0,137901	22,460000	48,785000
1,972945	-153,894830	212,915	-0,143098	22,460000	48,795000
1,959939	-166,573827	214,869	-0,148410	22,460000	48,825000
1,946977	-179,724791	216,821	-0,153920	22,460000	48,825000
1,933931	-192,915377	218,776	-0,159447	22,470000	48,755000
1,920933	-206,793519	220,729	-0,165262	22,470000	48,755000
1,907931	-218,847889	222,679	-0,170313	22,460000	48,795000
1,894943	-231,896303	224,632	-0,175780	22,460000	48,785000
1,881929	-245,498257	226,586	-0,181479	22,460000	48,795000
1,868907	-259,644429	228,540	-0,187407	22,450000	48,825000
1,855945	-272,748779	230,493	-0,192897	22,450000	48,825000
1,842935	-285,031558	232,446	-0,198044	22,470000	48,810000
1,829942	-298,459875	234,397	-0,203670	22,450000	48,795000
1,816973	-310,995534	236,350	-0,208923	22,450000	48,795000
1,803912	-325,141706	238,302	-0,214850	22,460000	48,795000
1,790925	-337,179762	240,254	-0,219894	22,460000	48,795000
1,777965	-351,128990	242,208	-0,225739	22,460000	48,795000
1,764937	-363,041188	244,161	-0,230730	22,460000	48,825000
1,751973	-376,438041	246,111	-0,236343	22,460000	48,825000
1,738956	-389,557540	248,064	-0,241840	22,470000	48,825000
1,725949	-402,835527	250,015	-0,247404	22,460000	48,770000
1,712941	-415,734776	251,971	-0,252809	22,460000	48,770000
1,699953	-428,988291	253,924	-0,258362	22,470000	48,810000
1,686958	-442,826810	255,879	-0,264160	22,450000	48,795000
1,673936	-456,057018	257,833	-0,269704	22,450000	48,810000
1,660990	-469,075132	259,786	-0,275158	22,470000	48,810000
1,647965	-481,832208	261,739	-0,280503	22,470000	48,810000
1,634997	-495,259360	263,692	-0,286129	22,470000	48,810000
1,621957	-507,274109	265,647	-0,291164	22,460000	48,810000
1,608945	-520,346994	267,601	-0,296641	22,460000	48,810000
1,595938	-533,301014	269,555	-0,302069	22,470000	48,810000
1,582940	-546,152484	271,507	-0,307454	22,470000	48,810000
1,569950	-559,643729	273,459	-0,313106	22,460000	48,825000
1,557003	-573,331919	275,410	-0,318842	22,460000	48,825000
1,543974	-584,984244	277,362	-0,323724	22,450000	48,795000
1,530978	-598,166673	279,315	-0,329248	22,470000	48,785000
1,518010	-611,563526	281,270	-0,334861	22,440000	48,750000
1,504919	-624,935906	283,225	-0,340464	22,460000	48,785000
1,492001	-638,418994	285,178	-0,346113	22,460000	48,770000
1,478972	-650,173870	287,133	-0,351039	22,460000	48,810000
1,465972	-663,672108	289,089	-0,356694	22,460000	48,825000
1,452956	-676,184461	291,041	-0,361937	22,460000	48,825000
1,439971	-690,014823	292,994	-0,367732	22,460000	48,755000
1,426990	-702,432783	294,945	-0,372935	22,460000	48,755000
1,413980	-715,481196	296,898	-0,378402	22,460000	48,795000
1,401010	-729,051686	298,850	-0,384088	22,460000	48,795000
1,387976	-741,452165	300,801	-0,389284	22,470000	48,810000
1,374967	-755,078591	302,753	-0,394994	22,470000	48,810000
1,361968	-767,803037	304,706	-0,400325	22,460000	48,795000
1,348974	-780,836301	306,660	-0,405786	22,460000	48,810000
1,335996	-792,882514	308,613	-0,410833	22,460000	48,810000
1,322983	-806,729192	310,567	-0,416635	22,460000	48,770000
1,309951	-818,664696	312,519	-0,421636	22,460000	48,810000
1,296967	-832,313264	314,470	-0,427355	22,470000	48,795000
1,283935	-844,913018	316,424	-0,432634	22,460000	48,770000
1,270977	-857,582693	318,378	-0,437943	22,460000	48,770000
1,257984	-871,057624	320,329	-0,443589	22,460000	48,785000
1,244974	-884,856522	322,282	-0,449371	22,460000	48,810000
1,231987	-897,494733	324,236	-0,454666	22,460000	48,810000
1,218944	-909,446552	326,189	-0,459674	22,460000	48,795000
1,205969	-922,653453	328,143	-0,465208	22,460000	48,835000
1,192980	-935,489773	330,098	-0,470586	22,450000	48,810000
1,179941	-948,285305	332,049	-0,475947	22,460000	48,825000
1,167035	-0,750485	334,002	-0,078930	22,460000	48,825000
1,154007	-0,639777	335,957	-0,078884	22,450000	48,795000
1,140948	-0,386896	337,914	-0,078778	22,450000	48,795000
1,131978	-0,268030	339,266	-0,078728	22,450000	48,795000

X-Pos [um]	Y-Pos [um]
0,000547	10,003962

POC
2,119924
1,133954	-0,064094	2,271	-0,078722	22,450000	48,810000
1,148892	-0,024472	4,526	-0,078705	22,450000	48,810000
1,163910	0,046614	6,781	-0,078675	22,460000	48,810000
1,178891	0,086236	9,036	-0,078659	22,460000	48,770000
1,193891	0,109543	11,288	-0,078649	22,450000	48,755000
1,208908	0,086236	13,540	-0,078659	22,460000	48,835000
1,223921	0,061763	15,795	-0,078669	22,460000	48,835000
1,238928	-0,047779	18,053	-0,078715	22,460000	48,770000
1,253894	0,244723	20,308	-0,078592	22,470000	48,835000
1,268904	0,061763	22,563	-0,078669	22,470000	48,835000
1,283916	-0,143338	24,818	-0,078755	22,460000	48,825000
1,298924	-0,143338	27,068	-0,078755	22,470000	48,785000
1,313879	0,236566	29,320	-0,078596	22,450000	48,785000
1,328919	0,251715	31,575	-0,078589	22,440000	48,805000
1,343894	0,228408	33,831	-0,078599	22,460000	48,785000
1,358919	0,000000	36,086	-0,078695	22,460000	48,785000
1,373931	-0,173637	38,340	-0,078768	22,460000	48,785000
1,388904	0,188787	40,592	-0,078616	22,460000	48,835000
1,403869	-0,072252	42,846	-0,078725	22,460000	48,835000
1,418877	-0,039622	45,099	-0,078711	22,460000	48,825000
1,433875	-0,032630	47,354	-0,078708	22,450000	48,810000
1,448847	-0,252881	49,609	-0,078801	22,460000	48,825000
1,463886	0,157322	51,864	-0,078629	22,460000	48,825000
1,478876	0,117700	54,119	-0,078646	22,480000	48,800000
1,493884	0,086236	56,372	-0,078659	22,460000	48,795000
1,508872	0,299495	58,626	-0,078569	22,460000	48,795000
1,523889	0,069921	60,881	-0,078666	22,460000	48,810000
1,538856	-0,292503	63,132	-0,078817	22,460000	48,835000
1,553889	-0,143338	65,389	-0,078755	22,460000	48,785000
1,568866	0,149165	67,643	-0,078632	22,450000	48,835000
1,583868	0,314644	69,900	-0,078563	22,450000	48,835000
1,598929	-0,047779	72,155	-0,078715	22,460000	48,825000
1,613876	0,086236	74,408	-0,078659	22,460000	48,810000
1,628910	-0,016315	76,660	-0,078702	22,440000	48,790000
1,643886	0,023307	78,915	-0,078685	22,450000	48,810000
1,658898	-0,072252	81,172	-0,078725	22,460000	48,825000
1,673881	0,117700	83,428	-0,078646	22,460000	48,795000
1,688901	-0,064094	85,685	-0,078722	22,450000	48,810000
1,703901	-0,064094	87,938	-0,078722	22,450000	48,810000
1,718867	-0,032630	90,191	-0,078708	22,460000	48,785000
1,733912	-0,087401	92,441	-0,078731	22,460000	48,810000
1,748890	-0,158487	94,693	-0,078761	22,460000	48,810000
1,763833	-0,064094	96,952	-0,078722	22,470000	48,825000
1,778885	0,109543	99,207	-0,078649	22,470000	48,825000
1,793865	-0,213259	101,461	-0,078784	22,460000	48,785000
1,808866	0,031464	103,718	-0,078682	22,450000	48,810000
1,823911	-0,166645	105,970	-0,078765	22,450000	48,810000
1,838901	-0,072252	108,228	-0,078725	22,460000	48,810000
1,853834	-0,418360	110,482	-0,078870	22,460000	48,810000
1,868859	-0,008157	112,734	-0,078698	22,460000	48,795000
1,883863	-0,143338	114,990	-0,078755	22,460000	48,795000
1,898886	-0,118866	117,245	-0,078745	22,450000	48,795000
1,913878	-0,103716	119,500	-0,078738	22,460000	48,770000
1,928890	-0,087401	121,753	-0,078731	22,460000	48,795000
1,943837	-0,118866	124,006	-0,078745	22,450000	48,795000
1,958833	-0,261038	126,261	-0,078804	22,460000	48,770000
1,973848	-0,252881	128,515	-0,078801	22,460000	48,770000
1,988873	-0,221416	130,769	-0,078788	22,460000	48,785000
2,003849	-0,340282	133,024	-0,078837	22,460000	48,785000
2,018856	-0,261038	135,278	-0,078804	22,470000	48,785000
2,033886	-0,340282	137,531	-0,078837	22,460000	48,795000
2,048830	-0,664249	139,786	-0,078973	22,450000	48,770000
2,063875	-0,869350	142,040	-0,079059	22,450000	48,785000
2,078858	-37,655924	144,297	-0,094473	22,450000	48,785000
2,093846	-22,451615	146,551	-0,088102	22,460000	48,795000
2,108847	-8,542009	148,808	-0,082274	22,460000	48,785000
2,123882	6,630836	151,066	-0,075917	22,450000	48,785000
2,138844	21,825822	153,316	-0,069550	22,450000	48,785000
2,153823	37,827230	155,569	-0,062845	22,460000	48,795000
2,168833	51,997874	157,824	-0,056908	22,450000	48,795000
2,183837	67,390970	160,076	-0,050458	22,470000	48,810000
2,198852	81,664165	162,330	-0,044478	22,470000	48,810000
2,213814	97,199433	164,582	-0,037968	22,460000	48,795000
2,228876	111,922453	166,839	-0,031799	22,450000	48,795000
2,243854	127,552114	169,093	-0,025250	22,460000	48,795000
2,258852	142,455763	171,353	-0,019006	22,460000	48,795000
2,273875	157,193933	173,606	-0,012831	22,460000	48,825000
2,288850	172,422714	175,861	-0,006450	22,450000	48,795000
2,303812	188,067525	178,115	0,000105	22,450000	48,795000
2,318836	202,317413	180,369	0,006076	22,450000	48,825000
2,333832	217,733816	182,625	0,012536	22,450000	48,795000
2,348866	232,203955	184,881	0,018599	22,470000	48,795000
2,363845	247,629680	187,136	0,025062	22,470000	48,810000
2,367816	253,494882	189,391	0,027520	22,450000	48,795000
2,352875	238,100621	191,642	0,021069	22,450000	48,795000
2,337841	222,186614	193,896	0,014401	22,480000	48,800000
2,322862	207,314430	196,148	0,008170	22,470000	48,795000
2,307871	192,055349	198,402	0,001776	22,460000	48,835000
2,292890	177,316015	200,656	-0,004399	22,460000	48,770000
2,277902	160,944026	202,908	-0,011259	22,470000	48,745000
2,262840	145,739717	205,162	-0,017630	22,460000	48,770000
2,247806	131,246271	207,414	-0,023703	22,460000	48,770000
2,232823	116,097899	209,669	-0,030050	22,450000	48,810000
2,217872	100,799196	211,923	-0,036460	22,450000	48,785000
2,202871	84,285035	214,178	-0,043379	22,450000	48,785000
2,187816	69,348756	216,434	-0,049638	22,450000	48,785000
2,172844	55,210742	218,689	-0,055562	22,460000	48,785000
2,157880	40,558808	220,946	-0,061701	22,460000	48,785000
2,142880	24,770659	223,203	-0,068316	22,460000	48,785000
2,127869	9,361249	225,458	-0,074772	22,460000	48,755000
2,112850	-7,010740	227,710	-0,081632	22,460000	48,755000
2,097830	-21,811838	229,963	-0,087834	22,460000	48,770000
2,082823	-36,329756	232,214	-0,093917	22,460000	48,755000
2,067850	-51,099390	234,469	-0,100105	22,450000	48,795000
2,052840	-66,705745	236,722	-0,106645	22,470000	48,795000
2,037839	-83,046269	238,974	-0,113491	22,450000	48,745000
2,022849	-97,587494	241,226	-0,119584	22,450000	48,745000
2,007846	-112,183491	243,481	-0,125700	22,460000	48,785000
1,992877	-127,467044	245,735	-0,132104	22,450000	48,785000
1,977886	-142,504708	247,988	-0,138404	22,460000	48,785000
1,962872	-157,811568	250,242	-0,144818	22,460000	48,785000
1,947885	-173,875904	252,500	-0,151549	22,460000	48,795000
1,932869	-187,848439	254,752	-0,157403	22,460000	48,785000
1,917864	-204,078256	257,006	-0,164204	22,460000	48,785000
1,902841	-218,280364	259,261	-0,170154	22,450000	48,795000
1,887890	-233,326186	261,520	-0,176458	22,460000	48,785000
1,872882	-248,593424	263,776	-0,182855	22,460000	48,785000
1,857899	-264,720689	266,032	-0,189613	22,460000	48,795000
1,842891	-279,341158	268,286	-0,195739	22,470000	48,770000
1,827910	-293,732054	270,541	-0,201769	22,470000	48,770000
1,812910	-308,840804	272,795	-0,208099	22,460000	48,755000
1,797891	-324,628953	275,046	-0,214714	22,460000	48,755000
1,782867	-339,226115	277,301	-0,220831	22,460000	48,770000
1,767876	-354,146079	279,554	-0,227082	22,460000	48,795000
1,752879	-368,892406	281,807	-0,233261	22,460000	48,795000
[...]
1,831504	-0,188787	126,259	-0,078417	22,430000	48,620000
1,866487	-0,158487	131,517	-0,078404	22,430000	48,635000
1,901506	-0,323967	136,775	-0,078474	22,430000	48,635000
1,936541	-48,501827	142,032	-0,098660	22,430000	48,650000
1,971471	-13,041421	147,291	-0,083802	22,430000	48,660000
2,006460	21,795523	152,548	-0,069206	22,430000	48,610000
2,041486	57,801313	157,810	-0,054119	22,430000	48,660000
2,076486	92,170952	163,074	-0,039718	22,430000	48,675000
2,111491	127,379643	168,334	-0,024966	22,430000	48,650000
2,146509	163,439038	173,594	-0,009857	22,440000	48,660000
2,181482	197,872772	178,856	0,004571	22,430000	48,675000
2,216453	232,836739	184,110	0,019221	22,430000	48,620000
2,251472	268,541869	189,368	0,034181	22,420000	48,650000
2,286440	303,377648	194,629	0,048777	22,430000	48,620000
2,321507	338,348607	199,892	0,063430	22,430000	48,660000
2,356485	374,384696	205,156	0,078529	22,430000	48,660000
2,391480	409,529292	210,416	0,093255	22,440000	48,635000
2,426434	444,161135	215,676	0,107766	22,430000	48,660000
2,461433	478,690427	220,937	0,122233	22,430000	48,635000
2,496485	515,026011	226,200	0,137458	22,430000	48,635000
2,531486	550,320937	231,461	0,152247	22,430000	48,660000
2,566489	584,620656	236,723	0,166618	22,440000	48,660000
2,601503	619,607930	241,983	0,181278	22,430000	48,675000
2,636476	654,688432	247,240	0,195977	22,440000	48,650000
2,671438	690,069595	252,502	0,210801	22,440000	48,635000
2,706488	726,485587	257,760	0,226060	22,430000	48,620000
2,741445	760,454346	263,015	0,240292	22,430000	48,660000
2,776478	796,861016	268,273	0,255547	22,430000	48,660000
2,811501	831,003412	273,537	0,269853	22,450000	48,655000
2,846461	865,951065	278,795	0,284496	22,430000	48,675000
2,881416	900,913867	284,058	0,299145	22,440000	48,595000
2,916450	936,318336	289,320	0,313979	22,430000	48,650000
2,951426	971,904600	294,578	0,328890	22,430000	48,610000
2,986414	1006,377955	299,834	0,343334	22,420000	48,610000
3,021498	1041,626268	305,094	0,358104	22,430000	48,660000
3,056402	1076,880407	310,350	0,372875	22,430000	48,675000
3,091425	1112,041319	315,611	0,387607	22,430000	48,650000
3,126398	1147,477252	320,871	0,402455	22,430000	48,675000
3,161403	1183,403798	326,127	0,417508	22,430000	48,660000
3,196432	1218,847889	331,390	0,432359	22,430000	48,650000
3,231435	1252,524146	336,647	0,446470	22,430000	48,635000
3,266343	1288,844580	341,912	0,461688	22,430000	48,690000
3,301412	1323,357557	347,171	0,476149	22,420000	48,635000
3,336357	1358,100108	352,434	0,490706	22,430000	48,650000
3,371349	1393,393869	357,698	0,505494	22,430000	48,620000
3,406344	1429,131629	362,956	0,520468	22,430000	48,620000
3,441366	1463,841550	368,215	0,535012	22,420000	48,660000
3,476379	1498,756573	373,476	0,549641	22,430000	48,635000
3,511354	1534,461702	378,735	0,564602	22,430000	48,675000
3,546320	1570,079430	383,991	0,579525	22,440000	48,650000
3,581344	1604,190362	389,251	0,593818	22,430000	48,635000
3,616361	1640,250923	394,512	0,608927	22,420000	48,610000
3,651310	1675,426984	399,774	0,623666	22,430000	48,635000
3,686354	1709,387586	405,032	0,637896	22,420000	48,650000
3,721337	1744,618418	410,286	0,652657	22,430000	48,620000
3,756335	1780,394634	415,548	0,667647	22,430000	48,635000
3,791320	1815,081248	420,811	0,682181	22,430000	48,620000
3,826310	1849,910035	426,079	0,696774	22,430000	48,650000
3,861321	1885,061624	431,345	0,711503	22,430000	48,620000
3,896327	1920,925241	436,607	0,726530	22,420000	48,650000
3,931304	1956,337867	441,866	0,741368	22,430000	48,635000
3,966330	1990,874152	447,129	0,755838	22,430000	48,620000
3,990276	2015,811456	452,392	0,766287	22,430000	48,660000
3,955285	1981,298479	457,650	0,751826	22,440000	48,660000
3,920347	1946,051331	462,910	0,737058	22,440000	48,620000
3,885353	1910,970829	468,167	0,722359	22,440000	48,620000
3,850360	1874,341578	473,428	0,707011	22,430000	48,635000
3,815316	1839,403248	478,686	0,692372	22,430000	48,635000
3,780287	1804,400824	483,945	0,677706	22,420000	48,635000
3,745302	1768,869332	489,200	0,662818	22,430000	48,650000
3,710367	1732,974250	494,458	0,647778	22,430000	48,660000
3,675314	1697,924047	499,715	0,633092	22,430000	48,650000
3,640287	1662,693215	504,976	0,618331	22,440000	48,660000
3,605360	1627,715263	510,236	0,603675	22,440000	48,650000
3,570343	1592,264180	515,499	0,588821	22,430000	48,650000
3,535343	1556,447177	520,758	0,573813	22,420000	48,675000
3,500351	1521,349195	526,017	0,559107	22,430000	48,650000
3,465338	1486,283842	531,277	0,544415	22,430000	48,650000
3,430363	1450,523941	536,545	0,529432	22,430000	48,635000
3,395399	1415,955027	541,804	0,514947	22,430000	48,690000
3,360331	1380,186969	547,062	0,499960	22,440000	48,650000
3,325454	1344,979443	552,320	0,485208	22,430000	48,660000
3,290469	1308,848961	557,582	0,470070	22,450000	48,695000
3,255384	1274,722880	562,840	0,455771	22,430000	48,660000
3,220422	1237,739363	568,102	0,440275	22,430000	48,650000
3,185428	1203,218228	573,362	0,425811	22,430000	48,675000
3,150477	1167,314989	578,626	0,410767	22,430000	48,675000
3,115468	1132,699461	583,885	0,396263	22,430000	48,660000
3,080451	1096,426807	589,147	0,381065	22,430000	48,675000
3,045473	1060,950086	594,403	0,366200	22,430000	48,700000
3,010424	1027,321608	599,663	0,352110	22,440000	48,660000
2,975420	991,719030	604,920	0,337192	22,440000	48,660000
2,940467	955,737713	610,178	0,322116	22,430000	48,635000
2,905510	921,375065	615,432	0,307718	22,440000	48,635000
2,870445	885,354126	620,694	0,292625	22,430000	48,650000
2,835512	850,943700	625,955	0,278208	22,440000	48,635000
2,800490	815,341121	631,220	0,263290	22,430000	48,650000
2,765413	779,597535	636,484	0,248313	22,430000	48,635000
2,730537	744,792055	641,744	0,233730	22,420000	48,610000
2,695499	709,417885	647,000	0,218908	22,440000	48,660000
2,660466	674,613570	652,255	0,204325	22,430000	48,620000
2,625490	639,303494	657,512	0,189530	22,430000	48,650000
2,590513	603,132225	662,769	0,174375	22,420000	48,635000
2,555467	569,163466	668,032	0,160142	22,430000	48,650000
2,520494	532,472451	673,286	0,144768	22,420000	48,650000
2,485507	498,330055	678,543	0,130462	22,440000	48,620000
2,450468	462,538690	683,804	0,115466	22,430000	48,660000
2,415474	427,946469	689,064	0,100972	22,430000	48,635000
2,380460	392,163261	694,322	0,085979	22,430000	48,650000
2,345571	357,823920	699,572	0,071590	22,430000	48,660000
2,310523	323,294628	704,828	0,057123	22,430000	48,660000
2,275478	286,903108	710,091	0,041875	22,430000	48,660000
2,240492	252,231643	715,348	0,027347	22,430000	48,660000
2,205539	216,676844	720,602	0,012450	22,430000	48,650000
2,170539	181,982072	725,865	-0,002087	22,420000	48,660000
2,135498	147,004121	731,128	-0,016743	22,430000	48,660000
2,100488	112,474828	736,389	-0,031211	22,420000	48,650000
2,065521	76,801163	741,651	-0,046158	22,430000	48,660000
2,030556	42,486295	746,909	-0,060536	22,420000	48,660000
1,995526	7,168062	752,166	-0,075334	22,430000	48,635000
1,960538	-28,221258	757,426	-0,090163	22,430000	48,660000
1,925573	-64,328433	762,686	-0,105292	22,430000	48,660000
1,890516	-98,976590	767,943	-0,119809	22,430000	48,650000
1,855551	-133,086357	773,204	-0,134101	22,430000	48,660000
1,820584	-168,949974	778,467	-0,149128	22,440000	48,635000
1,785526	-204,007169	783,725	-0,163817	22,430000	48,650000
1,750645	-238,733405	788,982	-0,178367	22,430000	48,675000
1,715563	-273,688050	794,233	-0,193013	22,420000	48,635000
1,680494	-308,533152	799,493	-0,207613	22,420000	48,675000
1,645555	-344,150880	804,750	-0,222537	22,430000	48,635000
1,610542	-379,232548	810,006	-0,237236	22,430000	48,635000
1,575583	-414,818812	815,264	-0,252147	22,430000	48,675000
1,540550	-448,557997	820,525	-0,266284	22,430000	48,660000
1,505562	-483,418248	825,784	-0,280890	22,440000	48,650000
1,470555	-518,113020	831,043	-0,295427	22,430000	48,635000
1,435570	-552,776328	836,300	-0,309951	22,420000	48,635000
1,400538	-587,904609	841,556	-0,324670	22,430000	48,660000
1,365517	-623,965170	846,822	-0,339779	22,430000	48,650000
1,330549	-658,659942	852,078	-0,354316	22,420000	48,675000
1,295589	-693,156604	857,340	-0,368771	22,420000	48,675000
1,260537	-728,529609	862,599	-0,383592	22,430000	48,675000
1,225595	-762,719785	867,854	-0,397917	22,430000	48,635000
1,190526	-797,373769	873,114	-0,412438	22,430000	48,620000
1,155572	-831,595409	878,376	-0,426776	22,430000	48,620000
1,120616	-866,478968	883,630	-0,441393	22,430000	48,635000
1,085569	-902,240034	888,890	-0,456376	22,420000	48,660000
1,050575	-936,665610	894,145	-0,470801	22,430000	48,620000
1,015582	-971,130808	899,401	-0,485242	22,430000	48,660000
0,992560	-0,631619	902,856	-0,078603	22,440000	48,675000