File: Nanoindentation Datenauswertung/data/Saphir/PM-Sa-150ms, 3um, 20nms ,3cycles
Quasi static measurement routine
Tip parameters (shape,radius, material...)
08.09.2022

Piezo position[nm]	MEMS displ.[nm]	Time[ms]	Cap [pf]	Temp [°C]	Rh [%]
eoh
1,288003	-0,242984	0,202	-0,076787	22,500000	54,390000
1,336087	0,093722	2,605	-0,076645	22,480000	54,345000
1,384089	-0,297366	5,012	-0,076810	22,480000	54,345000
1,431998	-0,039340	7,414	-0,076701	22,490000	54,345000
1,480068	-0,282324	9,818	-0,076803	22,500000	54,365000
1,528091	-0,415386	12,218	-0,076859	22,490000	54,385000
1,576070	-0,328606	14,622	-0,076823	22,480000	54,375000
1,624033	-0,399187	17,027	-0,076853	22,500000	54,350000
1,672073	-0,234884	19,431	-0,076783	22,500000	54,335000
1,720025	-0,352905	21,836	-0,076833	22,480000	54,375000
1,768053	-0,180502	24,242	-0,076760	22,500000	54,390000
1,816019	-0,494067	26,646	-0,076893	22,500000	54,390000
1,864066	-0,650270	29,052	-0,076958	22,500000	54,405000
1,912074	-0,431585	31,458	-0,076866	22,490000	54,360000
1,960049	-0,501009	33,860	-0,076896	22,490000	54,375000
2,008036	-0,595888	36,264	-0,076936	22,500000	54,350000
2,056062	-0,807631	38,666	-0,077025	22,490000	54,375000
2,104030	-0,948793	41,073	-0,077084	22,500000	54,390000
2,152066	-1,395420	43,479	-0,077273	22,490000	54,400000
2,199985	-2,194951	45,884	-0,077610	22,480000	54,400000
2,248043	-5,322497	48,286	-0,078930	22,500000	54,380000
2,296021	12,164220	50,692	-0,071551	22,480000	54,385000
2,344027	62,892245	53,095	-0,050144	22,480000	54,385000
2,392018	109,191027	55,500	-0,030605	22,480000	54,385000
2,440014	155,780232	57,905	-0,010945	22,490000	54,375000
2,488058	207,134229	60,307	0,010727	22,490000	54,375000
2,535929	254,240642	62,712	0,030605	22,500000	54,390000
2,584027	303,227285	65,121	0,051278	22,490000	54,385000
2,632063	347,826338	67,524	0,070099	22,480000	54,400000
2,680012	398,638829	69,925	0,091542	22,500000	54,380000
2,727986	445,290516	72,328	0,111229	22,490000	54,375000
2,775974	495,046607	74,728	0,132226	22,480000	54,345000
2,824053	542,928253	77,131	0,152432	22,490000	54,385000
2,872063	590,802957	79,536	0,172635	22,490000	54,375000
2,919997	638,050531	81,939	0,192573	22,490000	54,375000
2,955964	674,629971	84,343	0,208010	22,480000	54,375000
2,917000	638,536498	86,747	0,192778	22,500000	54,365000
2,869039	589,972184	89,150	0,172284	22,490000	54,385000
2,821026	541,619613	91,557	0,151879	22,480000	54,375000
2,772959	489,983292	93,960	0,130089	22,480000	54,345000
2,725004	441,630721	96,362	0,109684	22,480000	54,345000
2,677052	396,327014	98,765	0,090566	22,480000	54,415000
2,629015	344,948719	101,170	0,068884	22,500000	54,390000
2,580976	299,480709	103,576	0,049697	22,490000	54,375000
2,542079	254,608588	105,869	0,030761	22,480000	54,400000
2,590057	303,023641	108,271	0,051192	22,480000	54,400000
2,638026	351,220009	110,678	0,071531	22,500000	54,390000
2,685960	399,626962	113,081	0,091958	22,500000	54,390000
2,733976	448,284999	115,483	0,112492	22,480000	54,385000
2,781992	496,394587	117,888	0,132794	22,490000	54,385000
2,830037	544,645337	120,292	0,153156	22,500000	54,390000
2,878034	594,111004	122,695	0,174031	22,490000	54,375000
2,925984	643,803456	125,102	0,195001	22,490000	54,375000
2,974011	691,921144	127,507	0,215307	22,500000	54,365000
3,021927	737,749000	129,911	0,234646	22,490000	54,400000
3,070013	788,288424	132,314	0,255974	22,480000	54,415000
3,117971	836,805298	134,718	0,276448	22,480000	54,415000
3,165924	882,571831	137,125	0,295761	22,490000	54,375000
3,213975	929,458401	139,531	0,315547	22,490000	54,400000
3,261982	977,411785	141,937	0,335784	22,480000	54,375000
3,309925	1028,209234	144,342	0,357220	22,480000	54,375000
3,357944	1073,378721	146,744	0,376282	22,490000	54,400000
3,405917	1124,428410	149,148	0,397825	22,500000	54,405000
3,453919	1171,260599	151,551	0,417588	22,480000	54,400000
3,501898	1218,953643	153,953	0,437714	22,480000	54,375000
3,549926	1268,576672	156,358	0,458655	22,500000	54,405000
3,597865	1316,294015	158,763	0,478792	22,490000	54,400000
3,618860	1339,228192	161,170	0,488470	22,490000	54,400000
3,570895	1291,964418	163,578	0,468525	22,480000	54,375000
3,522869	1243,619946	165,984	0,448124	22,490000	54,360000
3,474911	1192,014866	168,386	0,426346	22,500000	54,390000
3,427002	1143,560473	170,792	0,405898	22,480000	54,415000
3,378929	1095,913711	173,195	0,385792	22,490000	54,375000
3,330892	1049,191443	175,598	0,366075	22,490000	54,385000
3,282933	1001,277399	178,001	0,345855	22,490000	54,385000
3,234916	949,993983	180,405	0,324213	22,490000	54,415000
3,186949	902,833188	182,806	0,304312	22,490000	54,360000
3,138946	855,475692	185,210	0,284327	22,480000	54,400000
3,091015	808,095055	187,615	0,264332	22,490000	54,360000
3,042955	759,789923	190,017	0,243947	22,490000	54,360000
3,082048	795,201885	192,305	0,258891	22,490000	54,375000
3,129996	844,667552	194,710	0,279766	22,490000	54,375000
3,177938	892,706559	197,117	0,300038	22,500000	54,390000
3,225927	941,285915	199,523	0,320539	22,490000	54,385000
3,273947	986,620862	201,928	0,339670	22,490000	54,415000
3,321933	1037,802457	204,334	0,361269	22,480000	54,385000
3,370005	1083,482209	206,737	0,380545	22,490000	54,385000
3,417900	1131,317573	209,145	0,400732	22,490000	54,385000
3,465866	1182,295524	211,550	0,422245	22,490000	54,415000
3,513871	1228,421903	213,954	0,441710	22,490000	54,375000
3,561880	1276,375287	216,358	0,461946	22,480000	54,400000
3,609846	1328,011608	218,764	0,483737	22,490000	54,400000
3,657902	1374,436510	221,168	0,503328	22,490000	54,385000
3,705850	1421,471184	223,570	0,523177	22,480000	54,400000
3,753864	1468,859921	225,973	0,543175	22,490000	54,345000
3,801856	1517,517958	228,376	0,563708	22,490000	54,345000
3,849820	1564,655611	230,779	0,583601	22,490000	54,375000
3,897832	1615,664803	233,181	0,605126	22,490000	54,375000
3,945865	1660,859745	235,583	0,624199	22,490000	54,375000
3,993855	1711,868937	237,986	0,645725	22,480000	54,375000
4,041856	1759,594379	240,390	0,665865	22,480000	54,385000
4,089824	1804,678243	242,794	0,684890	22,500000	54,390000
4,137835	1852,544848	245,199	0,705090	22,500000	54,365000
4,185781	1903,679003	247,602	0,726668	22,490000	54,385000
4,233793	1950,706735	250,006	0,746514	22,490000	54,385000
4,281800	1996,919894	252,412	0,766016	22,490000	54,375000
4,266790	1984,394670	254,816	0,760730	22,490000	54,345000
4,218787	1937,539340	257,223	0,740958	22,490000	54,345000
4,170778	1887,477784	259,628	0,719832	22,490000	54,400000
4,122872	1839,133312	262,030	0,699430	22,500000	54,420000
4,074818	1793,133053	264,435	0,680018	22,490000	54,400000
4,026805	1743,894170	266,838	0,659239	22,490000	54,375000
3,978846	1697,281824	269,239	0,639569	22,490000	54,375000
3,930874	1645,998408	271,641	0,617927	22,480000	54,360000
3,882876	1597,583355	274,045	0,597496	22,490000	54,400000
3,834837	1552,483292	276,448	0,578464	22,490000	54,375000
3,786860	1502,845222	278,851	0,557517	22,490000	54,375000
3,738872	1455,590705	281,257	0,537575	22,500000	54,390000
3,690892	1407,496159	283,660	0,517279	22,490000	54,385000
3,642833	1357,685686	286,065	0,496259	22,490000	54,400000
3,594895	1310,156944	288,468	0,476202	22,490000	54,400000
3,546883	1259,813065	290,871	0,454957	22,500000	54,420000
3,498901	1214,125213	293,274	0,435677	22,500000	54,420000
3,450880	1166,141745	295,683	0,415428	22,490000	54,385000
3,402909	1117,413128	298,089	0,394864	22,490000	54,345000
3,354928	1069,593963	300,493	0,374685	22,490000	54,375000
3,306907	1020,238216	302,895	0,353856	22,490000	54,375000
3,258952	973,013783	305,300	0,333928	22,500000	54,380000
3,210948	921,714168	307,705	0,312279	22,490000	54,345000
3,162953	876,505341	310,111	0,293201	22,500000	54,390000
3,114964	825,010182	312,515	0,271470	22,500000	54,390000
3,066979	776,907537	314,918	0,251171	22,480000	54,375000
3,018967	728,641745	317,322	0,230803	22,480000	54,375000
2,970950	683,518541	319,724	0,211761	22,480000	54,385000
2,923020	635,267791	322,128	0,191399	22,490000	54,360000
2,874992	584,148678	324,531	0,169827	22,490000	54,400000
2,827027	535,937269	326,934	0,149481	22,490000	54,400000
2,779080	488,972018	329,336	0,129662	22,480000	54,360000
2,731001	439,836113	331,741	0,108927	22,490000	54,375000
2,683051	391,687185	334,146	0,088608	22,490000	54,375000
2,634970	343,922403	336,549	0,068451	22,490000	54,385000
2,587079	295,444868	338,952	0,047994	22,500000	54,405000
2,539037	247,460243	341,355	0,027744	22,500000	54,390000
2,491068	199,319415	343,756	0,007429	22,490000	54,400000
2,443017	154,517874	346,161	-0,011478	22,480000	54,385000
2,395054	103,672986	348,567	-0,032934	22,480000	54,400000
2,347032	56,848897	350,971	-0,052694	22,480000	54,400000
2,299037	9,734384	353,372	-0,072576	22,490000	54,400000
2,251025	-37,700635	355,777	-0,092594	22,480000	54,385000
2,203003	-87,417386	358,183	-0,113574	22,500000	54,420000
2,155018	-135,205310	360,588	-0,133741	22,490000	54,385000
2,107051	-184,702218	362,992	-0,154628	22,490000	54,375000
2,059047	-229,323256	365,394	-0,173458	22,490000	54,375000
2,011048	-279,416053	367,800	-0,194598	22,500000	54,380000
1,962991	-327,501342	370,204	-0,214890	22,500000	54,380000
1,915059	-373,016791	372,607	-0,234097	22,490000	54,375000
1,867031	-422,137654	375,012	-0,254826	22,480000	54,375000
1,819030	-468,585697	377,416	-0,274427	22,500000	54,390000
1,771033	-518,944618	379,822	-0,295679	22,490000	54,330000
1,723058	-565,470185	382,225	-0,315312	22,490000	54,385000
1,675073	-612,381054	384,628	-0,335109	22,500000	54,365000
1,627094	-662,943619	387,031	-0,356446	22,490000	54,375000
1,579066	-710,481617	389,435	-0,376507	22,490000	54,375000
1,531118	-757,007183	391,839	-0,396141	22,490000	54,430000
1,483133	-803,181002	394,242	-0,415626	22,480000	54,375000
1,435146	-850,381137	396,647	-0,435545	22,480000	54,385000
1,387033	-898,333364	399,051	-0,455781	22,500000	54,365000
1,339093	-0,124963	401,454	-0,076737	22,500000	54,365000
1,291082	0,211743	403,860	-0,076595	22,500000	54,380000
1,288051	0,226785	404,010	-0,076588	22,500000	54,380000