File: Nanoindentation Datenauswertung/data/Saphir/PM-Sa-150ms, 3um, 20nms ,9cycles-3
Quasi static measurement routine
Tip parameters (shape,radius, material...)
08.09.2022

Piezo position[nm]	MEMS displ.[nm]	Time[ms]	Cap [pf]	Temp [°C]	Rh [%]
eoh
1,251856	-0,234884	0,216	-0,076740	22,480000	54,480000
1,333927	0,016199	12,538	-0,076634	22,490000	54,480000
1,415884	-0,336706	24,856	-0,076783	22,480000	54,510000
1,497804	-0,172403	37,175	-0,076714	22,490000	54,525000
1,579893	-0,149261	49,491	-0,076704	22,490000	54,525000
1,661872	-0,172403	61,813	-0,076714	22,500000	54,485000
1,743900	-0,423486	74,140	-0,076820	22,490000	54,480000
1,825835	-0,305465	86,463	-0,076770	22,480000	54,480000
1,907828	-0,485967	98,781	-0,076846	22,490000	54,495000
1,989818	-0,689610	111,098	-0,076932	22,490000	54,495000
2,071778	-0,619030	123,412	-0,076902	22,490000	54,495000
2,153825	-1,316739	135,730	-0,077197	22,480000	54,480000
2,235757	-10,753758	148,047	-0,081179	22,480000	54,495000
2,317778	71,380471	160,359	-0,046519	22,480000	54,480000
2,399778	154,291090	172,683	-0,011530	22,480000	54,510000
2,472853	227,379388	185,009	0,019313	22,480000	54,480000
2,390777	145,591121	197,334	-0,015202	22,490000	54,495000
2,308817	62,892245	209,653	-0,050101	22,490000	54,510000
2,226812	-19,852914	221,975	-0,085019	22,480000	54,495000
2,189764	-58,180678	234,183	-0,101193	22,490000	54,495000
2,271796	24,643161	246,505	-0,066242	22,480000	54,510000
2,353805	106,659369	258,834	-0,031631	22,490000	54,495000
2,435828	190,407703	271,151	0,003711	22,480000	54,495000
2,517822	272,573173	283,472	0,038385	22,490000	54,480000
2,599776	353,751666	295,792	0,072642	22,490000	54,525000
2,681808	435,713492	308,111	0,107230	22,480000	54,495000
2,634817	390,268624	320,429	0,088052	22,480000	54,480000
2,552766	306,637154	332,749	0,052760	22,480000	54,510000
2,470818	224,832688	345,067	0,018238	22,480000	54,510000
2,388804	141,780908	357,391	-0,016810	22,480000	54,510000
2,361812	113,157444	369,592	-0,028889	22,490000	54,495000
2,443795	196,631554	381,916	0,006337	22,480000	54,480000
2,525813	278,906944	394,236	0,041058	22,480000	54,510000
2,607793	361,016875	406,555	0,075708	22,480000	54,495000
2,689776	443,865012	418,881	0,110670	22,490000	54,495000
2,771782	526,170487	431,198	0,145403	22,470000	54,535000
2,853724	609,026724	443,509	0,180368	22,490000	54,525000
2,906787	662,347730	455,833	0,202870	22,480000	54,525000
2,824801	579,124704	468,159	0,167750	22,480000	54,535000
2,742772	496,919894	480,483	0,133059	22,490000	54,510000
2,660801	414,989309	492,801	0,098484	22,480000	54,480000
2,578786	331,906287	505,118	0,063423	22,490000	54,510000
2,503825	255,150094	517,317	0,031032	22,490000	54,525000
2,585805	337,816573	529,640	0,065917	22,490000	54,525000
2,667798	421,385562	541,973	0,101184	22,480000	54,535000
2,749753	504,224443	554,300	0,136142	22,480000	54,495000
2,831797	585,951385	566,625	0,170630	22,490000	54,550000
2,913755	668,344796	578,949	0,205400	22,490000	54,525000
2,995750	750,784490	591,268	0,240190	22,480000	54,495000
3,077759	833,936935	603,593	0,275280	22,480000	54,495000
3,126805	883,801790	615,914	0,296323	22,480000	54,495000
3,044813	800,798606	628,234	0,261296	22,490000	54,510000
2,962768	717,520040	640,567	0,226152	22,500000	54,500000
2,880823	636,114762	652,888	0,191799	22,490000	54,480000
2,798799	553,023641	665,215	0,156735	22,490000	54,480000
2,716842	470,897512	677,537	0,122078	22,480000	54,525000
2,699805	452,729284	689,769	0,114411	22,490000	54,495000
2,781793	534,667969	702,097	0,148989	22,490000	54,510000
2,863815	617,076422	714,422	0,183765	22,490000	54,495000
2,945788	699,406194	726,744	0,218508	22,490000	54,525000
3,027805	782,018291	739,067	0,253371	22,490000	54,510000
3,109793	864,998334	751,385	0,288388	22,480000	54,525000
3,191780	948,168135	763,710	0,323486	22,480000	54,480000
3,273766	1030,184344	776,031	0,358097	22,490000	54,510000
3,355684	1110,993733	788,349	0,392198	22,490000	54,510000
3,292747	1048,470592	800,669	0,365813	22,480000	54,495000
3,210793	966,375703	812,993	0,331169	22,480000	54,510000
3,128707	882,908536	825,315	0,295946	22,480000	54,525000
3,046776	801,291515	837,641	0,261504	22,490000	54,525000
2,964810	719,071664	849,964	0,226807	22,490000	54,565000
2,882764	635,597554	862,282	0,191581	22,490000	54,535000
2,865816	617,216427	874,495	0,183824	22,480000	54,525000
2,947856	700,558631	886,815	0,218995	22,490000	54,535000
3,029727	783,021466	899,130	0,253794	22,480000	54,495000
3,111776	865,508599	911,456	0,288604	22,490000	54,510000
3,193776	947,634729	923,773	0,323261	22,490000	54,510000
3,275763	1029,918219	936,096	0,357984	22,480000	54,525000
3,357745	1113,768374	948,413	0,393369	22,480000	54,535000
3,439698	1195,557798	960,722	0,427884	22,480000	54,535000
3,521666	1276,696951	973,047	0,462125	22,480000	54,535000
3,570680	1326,530565	985,363	0,483155	22,480000	54,525000
3,488717	1244,654362	997,686	0,448603	22,480000	54,535000
3,406724	1161,305215	1010,012	0,413430	22,500000	54,515000
3,324730	1079,367687	1022,336	0,378852	22,480000	54,495000
3,242767	997,719426	1034,650	0,344396	22,500000	54,500000
3,160776	914,833105	1046,971	0,309418	22,480000	54,525000
3,078799	831,303456	1059,290	0,274169	22,490000	54,535000
3,003833	754,726609	1071,497	0,241854	22,480000	54,510000
3,085825	838,381220	1083,816	0,277156	22,490000	54,535000
3,167809	920,459910	1096,134	0,311793	22,490000	54,535000
3,249746	1003,424911	1108,454	0,346804	22,480000	54,535000
3,331716	1084,721425	1120,772	0,381111	22,480000	54,510000
3,413675	1167,474683	1133,095	0,416033	22,490000	54,480000
3,495686	1250,862013	1145,414	0,451223	22,490000	54,510000
3,577682	1332,996242	1157,733	0,485883	22,480000	54,525000
3,659743	1414,644503	1170,051	0,520339	22,480000	54,525000
3,741697	1496,488309	1182,371	0,554877	22,480000	54,525000
3,794674	1550,312639	1194,698	0,577591	22,490000	54,510000
3,712751	1468,303373	1207,015	0,542983	22,480000	54,525000
3,630683	1384,742484	1219,346	0,507720	22,490000	54,535000
3,548688	1302,146586	1231,672	0,472865	22,490000	54,535000
3,466771	1220,826931	1244,001	0,438548	22,480000	54,525000
3,384755	1137,838789	1256,327	0,403527	22,480000	54,535000
3,302734	1055,650178	1268,652	0,368843	22,480000	54,565000
3,220767	973,131804	1280,973	0,334021	22,480000	54,510000
3,195779	946,106246	1293,171	0,322616	22,490000	54,495000
3,277740	1029,118687	1305,495	0,357647	22,480000	54,535000
3,359722	1111,809464	1317,818	0,392542	22,480000	54,510000
3,441746	1193,692610	1330,137	0,427097	22,480000	54,535000
3,523713	1277,009358	1342,459	0,462257	22,480000	54,510000
3,605696	1359,269707	1354,791	0,496971	22,480000	54,480000
3,687686	1442,116688	1367,114	0,531932	22,490000	54,510000
3,769662	1523,914211	1379,434	0,566451	22,490000	54,525000
3,851717	1607,043515	1391,760	0,601531	22,480000	54,510000
3,933667	1688,879221	1404,077	0,636066	22,490000	54,535000
4,015663	1769,611087	1416,404	0,670135	22,490000	54,525000
3,964543	1719,439610	1428,719	0,648962	22,490000	54,535000
3,882670	1636,945535	1441,045	0,614150	22,490000	54,525000
3,800708	1554,262857	1453,367	0,579258	22,490000	54,525000
3,718680	1472,896919	1465,692	0,544921	22,500000	54,540000
3,636705	1389,876379	1478,010	0,509887	22,480000	54,525000
3,554754	1306,520290	1490,334	0,474710	22,480000	54,495000
3,472712	1225,576681	1502,659	0,440552	22,490000	54,535000
3,390763	1142,941443	1514,980	0,405680	22,490000	54,495000
3,357727	1108,179752	1527,192	0,391011	22,490000	54,535000
3,439669	1191,811223	1539,513	0,426303	22,480000	54,510000
3,521660	1274,282157	1551,834	0,461106	22,490000	54,525000
3,603693	1356,063481	1564,161	0,495618	22,490000	54,565000
3,685674	1438,291432	1576,481	0,530318	22,480000	54,535000
3,767662	1520,982209	1588,802	0,565213	22,490000	54,535000
3,849610	1603,430002	1601,127	0,600006	22,490000	54,550000
3,931645	1685,509849	1613,450	0,634644	22,500000	54,515000
4,013667	1767,910203	1625,777	0,669417	22,490000	54,525000
4,095573	1850,522299	1638,105	0,704279	22,490000	54,535000
4,177629	1931,927577	1650,433	0,738632	22,490000	54,535000
4,246626	2003,065064	1662,755	0,768652	22,490000	54,535000
4,164601	1920,029482	1675,074	0,733611	22,490000	54,510000
4,082661	1836,892078	1687,396	0,698527	22,480000	54,535000
4,000664	1754,303123	1699,722	0,663675	22,490000	54,535000
3,918658	1673,070248	1712,048	0,629395	22,490000	54,565000
3,836706	1589,517458	1724,372	0,594135	22,490000	54,535000
3,754704	1506,913461	1736,699	0,559276	22,480000	54,550000
3,672701	1425,680585	1749,027	0,524996	22,490000	54,575000
3,590733	1342,096555	1761,347	0,489724	22,480000	54,550000
3,508762	1260,079189	1773,674	0,455112	22,490000	54,535000
3,426700	1178,957392	1785,999	0,420879	22,500000	54,540000
3,344762	1095,442785	1798,321	0,385636	22,480000	54,525000
3,262793	1013,630221	1810,641	0,351111	22,500000	54,500000
3,180748	931,182427	1822,967	0,316318	22,490000	54,535000
3,098821	849,087539	1835,289	0,281674	22,490000	54,525000
3,016788	767,188194	1847,607	0,247112	22,480000	54,525000
2,934847	684,913961	1859,927	0,212393	22,480000	54,525000
2,852840	601,697877	1872,245	0,177275	22,480000	54,510000
2,770856	521,084031	1884,570	0,143256	22,480000	54,550000
2,688880	437,985967	1896,898	0,108189	22,500000	54,540000
2,606862	356,557548	1909,215	0,073826	22,480000	54,550000
2,524874	274,721842	1921,537	0,039292	22,490000	54,525000
2,442835	192,766958	1933,861	0,004707	22,480000	54,535000
2,360850	110,601488	1946,182	-0,029967	22,490000	54,550000
2,278832	28,695201	1958,495	-0,064532	22,480000	54,535000
2,196797	-54,348480	1970,813	-0,099576	22,480000	54,535000
2,114840	-135,212252	1983,138	-0,133701	22,490000	54,535000
2,032842	-216,719352	1995,454	-0,168097	22,490000	54,525000
1,950899	-298,125787	2007,776	-0,202450	22,480000	54,525000
1,868899	-380,736726	2020,093	-0,237312	22,490000	54,525000
1,786895	-462,573589	2032,417	-0,271847	22,500000	54,570000
1,704885	-543,273058	2044,736	-0,305902	22,480000	54,550000
1,622913	-625,188602	2057,060	-0,340471	22,480000	54,525000
1,540965	-707,690777	2069,374	-0,375287	22,500000	54,555000
1,458922	-788,782490	2081,689	-0,409507	22,490000	54,550000
1,376958	-870,603155	2094,007	-0,444036	22,480000	54,535000
1,294894	-950,941619	2106,330	-0,477938	22,480000	54,535000
1,251943	-993,212659	2112,792	-0,495777	22,480000	54,525000