File: Nanoindentation Datenauswertung/data/Saphir/PM-Sa-150ms, 3um, 7nms ,3cycles-2
Quasi static measurement routine
Tip parameters (shape,radius, material...)
08.09.2022

Piezo position[nm]	MEMS displ.[nm]	Time[ms]	Cap [pf]	Temp [°C]	Rh [%]
eoh
1,288085	-0,085623	0,170	-0,076638	22,490000	54,385000
1,335136	-0,054382	7,234	-0,076625	22,480000	54,415000
1,382169	-0,101822	14,294	-0,076645	22,490000	54,360000
1,429118	-0,281167	21,360	-0,076720	22,480000	54,385000
1,476116	-0,054382	28,425	-0,076625	22,480000	54,360000
1,523143	-0,258025	35,490	-0,076710	22,480000	54,400000
1,570153	-0,172403	42,557	-0,076674	22,490000	54,415000
1,617114	-0,046283	49,622	-0,076621	22,480000	54,360000
1,664102	-0,312407	56,683	-0,076733	22,480000	54,400000
1,711111	-0,407287	63,748	-0,076773	22,480000	54,415000
1,758125	-0,367947	70,812	-0,076757	22,500000	54,420000
1,805136	-0,054382	77,876	-0,076625	22,490000	54,430000
1,852151	-0,226785	84,938	-0,076697	22,500000	54,420000
1,899051	-0,305465	92,001	-0,076730	22,490000	54,430000
1,946084	-0,446627	99,066	-0,076790	22,480000	54,415000
1,993077	-0,673412	106,127	-0,076886	22,480000	54,415000
2,040066	-0,642171	113,190	-0,076873	22,490000	54,385000
2,087104	-0,845814	120,253	-0,076958	22,490000	54,430000
2,134097	-1,221860	127,316	-0,077117	22,480000	54,385000
2,181095	-1,755267	134,376	-0,077342	22,480000	54,430000
2,228081	-3,298791	141,436	-0,077994	22,500000	54,405000
2,275105	-9,530741	148,499	-0,080624	22,500000	54,390000
2,322025	38,367104	155,566	-0,060411	22,480000	54,400000
2,369133	85,402936	162,637	-0,040562	22,480000	54,375000
2,416020	131,882220	169,704	-0,020947	22,490000	54,385000
2,463109	179,545181	176,772	-0,000833	22,500000	54,420000
2,510041	226,784656	183,841	0,019102	22,490000	54,415000
2,557071	272,801114	190,906	0,038521	22,490000	54,440000
2,604070	319,860088	197,969	0,058379	22,490000	54,430000
2,651083	367,577431	205,031	0,078516	22,490000	54,415000
2,698091	413,563805	212,100	0,097922	22,490000	54,385000
2,745085	460,700302	219,163	0,117814	22,490000	54,400000
2,792071	507,478108	226,219	0,137554	22,480000	54,385000
2,839116	554,756924	233,287	0,157506	22,490000	54,385000
2,886063	601,815897	240,349	0,177365	22,490000	54,400000
2,933057	648,702468	247,411	0,197151	22,480000	54,375000
2,937029	654,173069	254,473	0,199459	22,490000	54,415000
2,890036	606,863013	261,537	0,179495	22,500000	54,420000
2,843045	559,334271	268,596	0,159438	22,490000	54,385000
2,796048	511,889996	275,659	0,139416	22,490000	54,430000
2,749097	463,584864	282,721	0,119031	22,490000	54,415000
2,702092	415,875620	289,787	0,098898	22,490000	54,415000
2,655075	369,012191	296,853	0,079122	22,480000	54,415000
2,608072	321,106246	303,913	0,058905	22,490000	54,400000
2,561069	273,436343	310,973	0,038789	22,480000	54,415000
2,561075	273,224600	317,918	0,038699	22,490000	54,415000
2,608070	320,150511	324,983	0,058502	22,480000	54,385000
2,655104	367,734792	332,046	0,078583	22,480000	54,430000
2,702069	414,261515	339,103	0,098217	22,480000	54,385000
2,749050	461,883979	346,180	0,118313	22,500000	54,390000
2,796074	510,252749	353,241	0,138725	22,480000	54,400000
2,843077	556,433510	360,303	0,158213	22,490000	54,360000
2,890044	603,563065	367,363	0,178102	22,480000	54,385000
2,937025	650,974943	374,426	0,198110	22,480000	54,385000
2,984033	698,379878	381,486	0,218115	22,490000	54,415000
3,031013	746,065980	388,551	0,238238	22,490000	54,360000
3,078085	792,796347	395,612	0,257958	22,490000	54,375000
3,125025	840,293848	402,673	0,278002	22,490000	54,415000
3,172028	887,063555	409,735	0,297739	22,480000	54,430000
3,218991	933,221175	416,797	0,317218	22,490000	54,400000
3,266012	980,107746	423,860	0,337004	22,480000	54,415000
3,313026	1027,229201	430,921	0,356889	22,500000	54,390000
3,359989	1075,488050	437,984	0,377254	22,480000	54,400000
3,406965	1121,246483	445,046	0,396564	22,490000	54,385000
3,453933	1168,571581	452,106	0,416536	22,490000	54,415000
3,500975	1215,521790	459,166	0,436349	22,480000	54,400000
3,547917	1263,419635	466,228	0,456562	22,500000	54,390000
3,594920	1310,439268	473,291	0,476404	22,490000	54,430000
3,608861	1325,228867	480,356	0,482645	22,490000	54,415000
3,561899	1277,519624	487,414	0,462512	22,500000	54,420000
3,514956	1230,288248	494,473	0,442580	22,490000	54,400000
3,468013	1182,091880	501,534	0,422241	22,490000	54,400000
3,420986	1135,676235	508,603	0,402654	22,500000	54,420000
3,373982	1087,496066	515,663	0,382322	22,490000	54,415000
3,326990	1041,008683	522,724	0,362704	22,500000	54,405000
3,280015	992,437426	529,784	0,342207	22,500000	54,435000
3,233007	945,142412	536,845	0,322249	22,490000	54,400000
3,186010	898,129721	543,906	0,302409	22,480000	54,415000
3,139052	850,115012	550,969	0,282147	22,490000	54,400000
3,092027	803,878712	558,040	0,262635	22,480000	54,400000
3,045063	755,416219	565,106	0,242184	22,490000	54,415000
3,077068	786,956642	572,049	0,255494	22,490000	54,415000
3,124057	835,238633	579,113	0,275869	22,480000	54,385000
3,171005	881,591797	586,176	0,295430	22,490000	54,415000
3,218029	930,407194	593,241	0,316030	22,490000	54,415000
3,265011	976,792756	600,304	0,335605	22,500000	54,435000
3,311977	1025,066647	607,365	0,355977	22,490000	54,415000
3,359019	1071,953218	614,428	0,375763	22,490000	54,430000
3,405918	1118,503082	621,486	0,395407	22,490000	54,375000
3,452974	1166,071164	628,549	0,415480	22,490000	54,385000
3,500008	1213,875287	635,610	0,435654	22,490000	54,430000
3,546897	1260,174069	642,673	0,455192	22,500000	54,405000
3,593920	1308,401677	649,733	0,475544	22,500000	54,435000
3,640937	1355,751074	656,797	0,495525	22,490000	54,385000
3,687928	1402,386561	663,862	0,515206	22,480000	54,415000
3,734946	1448,967667	670,930	0,534863	22,490000	54,430000
3,781916	1496,755591	677,994	0,555029	22,480000	54,415000
3,828896	1543,164294	685,054	0,574614	22,480000	54,400000
3,875950	1590,866595	692,118	0,594744	22,480000	54,415000
3,922901	1637,753166	699,181	0,614530	22,480000	54,415000
3,969881	1684,521716	706,243	0,634267	22,470000	54,385000
4,016851	1732,419561	713,303	0,654479	22,500000	54,405000
4,063909	1778,875703	720,367	0,674084	22,480000	54,415000
4,110928	1826,098980	727,430	0,694012	22,490000	54,415000
4,157859	1872,382720	734,496	0,713544	22,480000	54,440000
4,204868	1919,708975	741,553	0,733516	22,500000	54,420000
4,251837	1966,062139	748,614	0,753077	22,490000	54,400000
4,285884	2002,101229	755,676	0,768285	22,500000	54,420000
4,238843	1954,720592	762,737	0,748291	22,490000	54,385000
4,191859	1907,308714	769,797	0,728283	22,490000	54,415000
4,144824	1859,778816	776,858	0,708225	22,500000	54,405000
4,097847	1812,845962	783,919	0,688419	22,480000	54,415000
4,050903	1764,336030	790,974	0,667948	22,480000	54,440000
4,003865	1718,585697	798,035	0,648642	22,490000	54,415000
3,956856	1669,833938	805,100	0,628068	22,480000	54,385000
3,909906	1623,362754	812,159	0,608458	22,480000	54,375000
3,862855	1575,479950	819,218	0,588251	22,490000	54,415000
3,815953	1527,652686	826,278	0,568068	22,490000	54,385000
3,768942	1480,429410	833,343	0,548140	22,480000	54,430000
3,721959	1433,385478	840,403	0,528287	22,480000	54,415000
3,674904	1386,741891	847,470	0,508604	22,480000	54,415000
3,627880	1338,334938	854,531	0,488176	22,490000	54,440000
3,580949	1292,286082	861,589	0,468743	22,500000	54,445000
3,533906	1244,082772	868,646	0,448401	22,490000	54,430000
3,486948	1196,639653	875,707	0,428380	22,490000	54,415000
3,439950	1150,419552	882,768	0,408875	22,510000	54,420000
3,393000	1103,548023	889,831	0,389096	22,490000	54,385000
3,346016	1055,187352	896,893	0,368688	22,490000	54,400000
3,299014	1008,540294	903,959	0,349002	22,480000	54,400000
3,252038	961,617854	911,028	0,329201	22,480000	54,430000
3,205059	913,414544	918,089	0,308859	22,480000	54,415000
3,158004	866,519874	925,147	0,289070	22,490000	54,415000
3,111042	820,071831	932,206	0,269469	22,500000	54,420000
3,064019	772,260765	939,270	0,249292	22,500000	54,405000
3,016990	725,679660	946,336	0,229635	22,490000	54,400000
2,970048	678,862513	953,403	0,209878	22,480000	54,430000
2,923037	630,424319	960,467	0,189438	22,490000	54,415000
2,876081	583,615271	967,533	0,169684	22,490000	54,385000
2,829081	536,376953	974,598	0,149750	22,500000	54,405000
2,782024	488,956976	981,669	0,129738	22,490000	54,430000
2,735104	442,022965	988,736	0,109932	22,490000	54,430000
2,688090	395,323839	995,805	0,090225	22,480000	54,415000
2,641076	348,782074	1002,867	0,070584	22,490000	54,415000
2,594125	301,676818	1009,929	0,050706	22,480000	54,415000
2,547057	254,883970	1016,992	0,030959	22,490000	54,400000
2,500093	207,150428	1024,056	0,010816	22,480000	54,415000
2,453084	160,546181	1031,117	-0,008851	22,490000	54,400000
2,406097	113,306705	1038,183	-0,028786	22,490000	54,400000
2,359108	65,768707	1045,247	-0,048847	22,490000	54,430000
2,312073	20,034573	1052,316	-0,068147	22,490000	54,400000
2,265145	-27,275483	1059,383	-0,088112	22,490000	54,440000
2,218083	-73,480543	1066,451	-0,107610	22,480000	54,415000
2,171095	-120,673736	1073,513	-0,127526	22,490000	54,415000
2,124074	-167,654028	1080,571	-0,147352	22,490000	54,375000
2,077159	-214,077773	1087,635	-0,166942	22,500000	54,435000
2,030137	-261,936278	1094,697	-0,187139	22,500000	54,420000
1,983103	-307,953893	1101,758	-0,206558	22,480000	54,400000
1,936079	-354,784925	1108,820	-0,226321	22,490000	54,385000
1,889041	-401,868196	1115,889	-0,246190	22,500000	54,445000
1,842127	-449,514959	1122,953	-0,266297	22,490000	54,415000
1,795149	-495,641338	1130,017	-0,285762	22,500000	54,435000
1,748144	-542,230543	1137,080	-0,305423	22,500000	54,405000
1,701190	-589,227035	1144,146	-0,325255	22,490000	54,415000
1,654080	-635,784999	1151,216	-0,344903	22,490000	54,400000
1,607142	-682,373047	1158,279	-0,364563	22,490000	54,385000
1,560108	-730,137830	1165,341	-0,384720	22,490000	54,415000
1,513116	-776,045524	1172,412	-0,404093	22,490000	54,400000
1,466228	-822,547949	1179,481	-0,423717	22,480000	54,430000
1,419143	-869,630063	1186,543	-0,443585	22,490000	54,415000
1,372157	-915,059890	1193,608	-0,462757	22,490000	54,375000
1,325142	-961,084447	1200,676	-0,482179	22,490000	54,375000
1,288144	-0,179345	1206,237	-0,076677	22,480000	54,415000