File: Nanoindentation Datenauswertung/data/PDMS/12.09/EM-PDMS-150-10-150, 20nms,3um-4
Quasi static measurement routine
Tip parameters (shape,radius, material...)
12.09.2022

Piezo position[nm]	MEMS displ.[nm]	Time[ms]	Cap [pf]	Temp [°C]	Rh [%]
eoh
0,652144	-0,124963	0,211	-0,075953	22,310000	51,375000
0,688104	0,298523	2,015	-0,075774	22,300000	51,405000
0,724167	-0,062481	3,818	-0,075927	22,310000	51,405000
0,760167	0,086780	5,622	-0,075864	22,300000	51,365000
0,796124	-0,164303	7,423	-0,075970	22,310000	51,375000
0,832106	0,070581	9,226	-0,075871	22,310000	51,390000
0,868150	-0,101822	11,031	-0,075943	22,310000	51,390000
0,904129	-0,156204	12,834	-0,075966	22,310000	51,390000
0,940086	-0,234884	14,638	-0,076000	22,310000	51,390000
0,976121	-0,305465	16,442	-0,076029	22,310000	51,390000
1,012151	-0,124963	18,246	-0,075953	22,310000	51,350000
1,048101	-0,249926	20,047	-0,076006	22,310000	51,350000
1,084086	-0,305465	21,852	-0,076029	22,300000	51,405000
1,120127	-0,548449	23,654	-0,076132	22,300000	51,405000
1,156132	-0,187444	25,460	-0,075979	22,300000	51,405000
1,192129	-0,156204	27,262	-0,075966	22,300000	51,405000
1,228129	-0,289266	29,064	-0,076022	22,300000	51,390000
1,264087	0,039340	30,867	-0,075884	22,300000	51,390000
1,300086	-0,156204	32,670	-0,075966	22,310000	51,405000
1,336148	-0,415386	34,478	-0,076076	22,310000	51,375000
1,372081	-0,226785	36,278	-0,075996	22,310000	51,375000
1,408074	-0,328606	38,079	-0,076039	22,300000	51,390000
1,444134	-0,367947	39,882	-0,076056	22,300000	51,390000
1,480117	-0,328606	41,688	-0,076039	22,300000	51,405000
1,516074	-0,367947	43,493	-0,076056	22,310000	51,405000
1,552078	-0,407287	45,298	-0,076072	22,310000	51,390000
1,588139	-0,407287	47,100	-0,076072	22,310000	51,390000
1,624078	-0,540349	48,901	-0,076128	22,300000	51,390000
1,660083	-0,367947	50,704	-0,076056	22,300000	51,390000
1,696147	-0,445470	52,506	-0,076088	22,310000	51,365000
1,732088	-0,453569	54,313	-0,076092	22,310000	51,375000
1,768110	-0,587789	56,114	-0,076148	22,310000	51,375000
1,804082	-0,908296	57,916	-0,076284	22,300000	51,390000
1,840053	-0,563490	59,718	-0,076138	22,310000	51,390000
1,876078	-2,256276	61,521	-0,076853	22,310000	51,405000
1,912078	-149,908129	63,325	-0,139162	22,310000	51,405000
1,948015	-131,363855	65,127	-0,131336	22,300000	51,390000
1,984031	-112,967686	66,929	-0,123573	22,310000	51,405000
2,020042	-89,117113	68,731	-0,113508	22,310000	51,405000
2,056044	-67,923162	70,534	-0,104564	22,310000	51,405000
2,092056	-41,979460	72,342	-0,093616	22,310000	51,340000
2,128068	-18,176327	74,147	-0,083571	22,300000	51,405000
2,164049	3,332346	75,952	-0,074494	22,300000	51,405000
2,200029	29,174226	77,757	-0,063589	22,310000	51,405000
2,236022	53,000500	79,562	-0,053534	22,310000	51,405000
2,272090	76,601146	81,366	-0,043575	22,300000	51,390000
2,308058	98,986874	83,170	-0,034128	22,300000	51,390000
2,344106	123,409036	84,972	-0,023822	22,300000	51,390000
2,380059	147,786073	86,778	-0,013535	22,300000	51,390000
2,416043	171,651687	88,581	-0,003463	22,300000	51,405000
2,452057	196,616512	90,385	0,007072	22,300000	51,405000
2,488052	222,560214	92,190	0,018020	22,300000	51,390000
2,524006	245,666793	93,994	0,027771	22,310000	51,405000
2,560099	270,246316	95,802	0,038144	22,310000	51,405000
2,596071	296,856487	97,608	0,049373	22,290000	51,390000
2,632049	320,135469	99,410	0,059197	22,300000	51,415000
2,668043	347,317230	101,212	0,070667	22,300000	51,375000
2,704081	369,772382	103,016	0,080144	22,300000	51,365000
2,740024	394,721009	104,820	0,090672	22,300000	51,365000
2,776047	421,071997	106,626	0,101792	22,300000	51,405000
2,812017	444,930669	108,426	0,111860	22,300000	51,405000
2,848036	470,836187	110,228	0,122792	22,310000	51,415000
2,884007	498,001749	112,031	0,134256	22,310000	51,415000
2,920016	523,631887	113,835	0,145072	22,310000	51,375000
2,956013	549,473767	115,638	0,155978	22,310000	51,375000
2,992026	574,038248	117,438	0,166344	22,300000	51,375000
3,027976	598,359745	119,241	0,176607	22,300000	51,375000
3,063990	624,318489	121,043	0,187562	22,300000	51,405000
3,099959	652,488383	122,848	0,199450	22,300000	51,405000
3,136003	678,589446	124,649	0,210464	22,300000	51,390000
3,172015	703,740558	126,452	0,221078	22,300000	51,405000
3,207999	728,423060	128,257	0,231494	22,300000	51,375000
3,243977	756,842880	130,059	0,243487	22,300000	51,375000
3,279992	780,663368	131,861	0,253540	22,310000	51,365000
3,315936	806,457809	133,664	0,264425	22,310000	51,365000
3,351930	834,243557	135,468	0,276150	22,310000	51,405000
3,387928	859,182927	137,270	0,286675	22,300000	51,405000
3,423999	884,868604	139,073	0,297514	22,300000	51,415000
3,459944	913,861171	140,880	0,309749	22,300000	51,415000
3,495996	938,872279	142,684	0,320304	22,300000	51,390000
3,531930	963,781565	144,486	0,330815	22,310000	51,405000
3,567916	990,203134	146,288	0,341965	22,310000	51,405000
3,603899	1016,092454	148,092	0,352891	22,310000	51,375000
3,639903	1044,206809	149,896	0,364755	22,310000	51,375000
3,651919	1052,099147	151,698	0,368085	22,310000	51,365000
3,651856	1050,931668	153,500	0,367593	22,320000	51,390000
3,651907	1049,803530	155,308	0,367117	22,320000	51,390000
3,651893	1049,105820	157,112	0,366822	22,310000	51,375000
3,651900	1048,423152	158,916	0,366534	22,310000	51,375000
3,648929	1047,679160	160,717	0,366220	22,310000	51,375000
3,612849	1018,975859	162,522	0,354107	22,310000	51,375000
3,576905	988,196784	164,324	0,341119	22,310000	51,375000
3,540986	961,156185	166,128	0,329708	22,310000	51,375000
3,504919	934,043848	167,930	0,318266	22,300000	51,390000
3,468945	906,517282	169,735	0,306650	22,300000	51,390000
3,432876	876,991308	171,542	0,294190	22,310000	51,375000
3,396984	851,737217	173,343	0,283533	22,300000	51,375000
3,361030	824,782240	175,150	0,272158	22,310000	51,405000
3,324992	795,068822	176,954	0,259619	22,310000	51,405000
3,288983	769,062639	178,755	0,248644	22,310000	51,405000
3,252939	743,432501	180,561	0,237828	22,310000	51,365000
3,216994	714,446877	182,366	0,225596	22,310000	51,405000
3,180982	687,744141	184,171	0,214328	22,300000	51,375000
3,145044	662,403269	185,976	0,203634	22,310000	51,405000
3,108978	636,341547	187,776	0,192636	22,310000	51,405000
3,073041	610,162961	189,577	0,181588	22,320000	51,390000
3,037024	583,803873	191,382	0,170465	22,300000	51,390000
3,001047	555,195451	193,183	0,158392	22,300000	51,390000
2,965053	529,212409	194,986	0,147427	22,300000	51,375000
2,929049	504,161961	196,790	0,136856	22,300000	51,375000
2,893058	476,196868	198,591	0,125055	22,310000	51,415000
2,857044	452,157694	200,397	0,114910	22,320000	51,405000
2,820986	426,112170	202,200	0,103919	22,300000	51,405000
2,785127	398,201459	204,003	0,092141	22,310000	51,375000
2,749068	373,095472	205,806	0,081546	22,300000	51,415000
2,713066	344,628212	207,612	0,069533	22,310000	51,375000
2,677097	319,147336	209,416	0,058780	22,310000	51,375000
2,641068	292,725766	211,221	0,047630	22,300000	51,375000
2,605076	268,937676	213,026	0,037591	22,310000	51,390000
2,569037	243,706726	214,828	0,026944	22,310000	51,390000
2,533079	216,219500	216,631	0,015344	22,300000	51,350000
2,497128	192,540173	218,434	0,005352	22,300000	51,350000
2,461097	166,683251	220,236	-0,005560	22,320000	51,405000
2,425123	141,570322	222,038	-0,016158	22,310000	51,390000
2,389126	115,634719	223,841	-0,027103	22,310000	51,390000
2,353090	88,945868	225,646	-0,038365	22,310000	51,390000
2,317125	62,672403	227,448	-0,049453	22,290000	51,390000
2,281120	39,959225	229,252	-0,059038	22,310000	51,390000
2,245043	12,996149	231,058	-0,070416	22,300000	51,405000
2,209114	-11,693295	232,862	-0,080835	22,300000	51,405000
2,173029	-35,771808	234,667	-0,090996	22,320000	51,375000
2,137048	-60,351331	236,470	-0,101369	22,300000	51,365000
2,101115	-84,963252	238,273	-0,111755	22,300000	51,415000
2,065045	-109,260451	240,077	-0,122008	22,300000	51,375000
2,029033	-130,784166	241,879	-0,131091	22,300000	51,375000
1,993152	-154,963344	243,681	-0,141295	22,300000	51,405000
1,957112	-177,803799	245,486	-0,150934	22,310000	51,405000
1,921051	-204,241567	247,291	-0,162090	22,300000	51,390000
1,885091	-227,386330	249,096	-0,171857	22,310000	51,390000
1,849140	-248,164896	250,900	-0,180626	22,310000	51,390000
1,813050	-272,760617	252,704	-0,191005	22,320000	51,405000
1,777054	-295,279408	254,506	-0,200508	22,320000	51,405000
1,741055	-317,084290	256,310	-0,209710	22,310000	51,390000
1,705064	-340,896679	258,111	-0,219759	22,310000	51,375000
1,669137	-363,893337	259,914	-0,229463	22,310000	51,390000
1,633120	-386,967519	261,718	-0,239201	22,310000	51,430000
1,597111	-408,083947	263,519	-0,248112	22,310000	51,430000
1,561091	-431,197469	265,321	-0,257866	22,310000	51,405000
1,525137	-451,309566	267,124	-0,266353	22,310000	51,405000
1,489136	-473,969518	268,928	-0,275916	22,300000	51,365000
1,453114	-498,016791	270,732	-0,286063	22,300000	51,365000
1,417115	-518,128888	272,536	-0,294551	22,300000	51,365000
1,381110	-535,999750	274,339	-0,302092	22,300000	51,375000
1,345123	-555,029991	276,141	-0,310123	22,310000	51,430000
1,309158	-573,684186	277,947	-0,317995	22,310000	51,430000
1,273114	-594,062407	279,749	-0,326595	22,310000	51,390000
1,237115	-609,668894	281,551	-0,333181	22,310000	51,390000
1,201158	-625,031241	283,358	-0,339664	22,310000	51,405000
1,165128	-640,761534	285,160	-0,346302	22,310000	51,405000
1,129167	-658,005267	286,961	-0,353579	22,300000	51,390000
1,093138	-670,765375	288,765	-0,358963	22,300000	51,390000
1,057109	-683,338039	290,570	-0,364269	22,300000	51,390000
1,021103	-693,134904	292,378	-0,368403	22,310000	51,375000
0,985180	-700,933520	294,182	-0,371694	22,300000	51,415000
0,949090	-700,925420	295,987	-0,371691	22,300000	51,415000
0,913154	-702,289599	297,791	-0,372267	22,300000	51,390000
0,877105	-588,826690	299,598	-0,324385	22,310000	51,375000
0,841127	-0,179345	301,402	-0,075976	22,300000	51,390000
0,805132	-0,093722	303,206	-0,075940	22,310000	51,415000
0,769092	-0,046283	305,011	-0,075920	22,310000	51,415000
0,733160	0,385303	306,811	-0,075738	22,310000	51,415000
0,697104	0,047440	308,615	-0,075880	22,310000	51,390000
0,661146	0,282324	310,417	-0,075781	22,310000	51,390000
0,652102	0,227942	310,867	-0,075804	22,310000	51,390000