File: Nanoindentation Datenauswertung/data/PDMS/12.09/EM-PDMS-110-10-110, 20nms,2,2um-2
Quasi static measurement routine
Tip parameters (shape,radius, material...)
12.09.2022

Piezo position[nm]	MEMS displ.[nm]	Time[ms]	Cap [pf]	Temp [°C]	Rh [%]
eoh
0,652113	0,211743	0,188	-0,075927	22,310000	51,390000
0,679066	-0,062481	1,542	-0,076042	22,300000	51,405000
0,706151	0,016199	2,894	-0,076009	22,300000	51,405000
0,733140	-0,109921	4,247	-0,076063	22,300000	51,405000
0,760093	-0,093722	5,598	-0,076056	22,310000	51,415000
0,787153	0,024298	6,952	-0,076006	22,310000	51,415000
0,814145	-0,148104	8,304	-0,076079	22,310000	51,375000
0,841188	0,062481	9,654	-0,075990	22,310000	51,375000
0,868148	-0,070581	11,005	-0,076046	22,310000	51,375000
0,895170	-0,046283	12,359	-0,076036	22,310000	51,390000
0,922138	-0,062481	13,712	-0,076042	22,300000	51,390000
0,949089	-0,164303	15,067	-0,076085	22,300000	51,390000
0,976097	-0,234884	16,419	-0,076115	22,310000	51,390000
1,003127	-0,093722	17,772	-0,076056	22,310000	51,350000
1,030100	-0,015042	19,124	-0,076022	22,310000	51,350000
1,057135	-0,148104	20,478	-0,076079	22,300000	51,390000
1,084152	-0,352905	21,830	-0,076165	22,300000	51,390000
1,111087	0,070581	23,183	-0,075986	22,300000	51,390000
1,138076	-0,391088	24,537	-0,076181	22,310000	51,405000
1,165112	-0,242984	25,890	-0,076119	22,310000	51,365000
1,192119	-0,258025	27,243	-0,076125	22,310000	51,365000
1,219092	-0,116864	28,595	-0,076065	22,310000	51,365000
1,246092	-0,070581	29,950	-0,076046	22,310000	51,365000
1,273132	-0,148104	31,303	-0,076079	22,310000	51,365000
1,300124	-0,093722	32,654	-0,076056	22,300000	51,390000
1,327093	-0,046283	34,005	-0,076036	22,310000	51,390000
1,354108	-0,438527	35,358	-0,076201	22,310000	51,350000
1,381207	-0,249926	36,711	-0,076122	22,310000	51,350000
1,408094	-0,249926	38,064	-0,076122	22,310000	51,350000
1,435121	-0,164303	39,418	-0,076085	22,310000	51,365000
1,462099	-0,242984	40,772	-0,076119	22,310000	51,365000
1,489088	-0,376046	42,124	-0,076175	22,310000	51,365000
1,516085	-0,242984	43,475	-0,076119	22,310000	51,365000
1,543137	-0,382988	44,826	-0,076178	22,310000	51,365000
1,570059	-0,242984	46,179	-0,076119	22,300000	51,415000
1,597086	-0,320507	47,532	-0,076151	22,300000	51,375000
1,624120	-0,171246	48,883	-0,076088	22,300000	51,375000
1,651161	-0,540349	50,235	-0,076244	22,310000	51,365000
1,678111	-0,399187	51,587	-0,076185	22,310000	51,365000
1,705058	-0,006942	52,939	-0,076019	22,310000	51,365000
1,732104	-0,610930	54,289	-0,076274	22,310000	51,405000
1,759080	-0,556548	55,645	-0,076251	22,310000	51,405000
1,786084	-0,477868	56,997	-0,076218	22,310000	51,405000
1,813074	-0,752092	58,352	-0,076333	22,320000	51,365000
1,840072	-0,556548	59,702	-0,076251	22,310000	51,390000
1,867121	-0,940693	61,056	-0,076413	22,310000	51,390000
1,894109	-158,640495	62,410	-0,142962	22,320000	51,415000
1,921055	-148,176003	63,760	-0,138546	22,310000	51,375000
1,948027	-132,767374	65,113	-0,132044	22,310000	51,375000
1,975054	-117,114605	66,467	-0,125438	22,310000	51,375000
2,002096	-99,463585	67,820	-0,117990	22,310000	51,375000
2,029067	-84,947053	69,173	-0,111864	22,310000	51,375000
2,056079	-65,908712	70,524	-0,103830	22,300000	51,365000
2,082973	-50,774308	71,876	-0,097443	22,310000	51,390000
2,110036	-32,432520	73,231	-0,089703	22,310000	51,390000
2,137071	-14,712076	74,584	-0,082225	22,310000	51,375000
2,164023	3,073164	75,934	-0,074719	22,310000	51,375000
2,191079	23,623787	77,287	-0,066047	22,310000	51,375000
2,218054	41,432168	78,640	-0,058532	22,300000	51,375000
2,245056	57,891412	79,992	-0,051586	22,310000	51,390000
2,272091	75,942776	81,346	-0,043968	22,310000	51,390000
2,299019	96,501500	82,696	-0,035292	22,310000	51,390000
2,326069	112,640236	84,046	-0,028482	22,310000	51,375000
2,353021	130,682344	85,399	-0,020868	22,300000	51,365000
2,380067	151,406528	86,751	-0,012123	22,300000	51,365000
2,407049	167,803290	88,105	-0,005203	22,310000	51,405000
2,434086	186,747908	89,458	0,002792	22,300000	51,390000
2,461062	203,991641	90,810	0,010068	22,300000	51,390000
2,488025	222,630795	92,161	0,017934	22,310000	51,375000
2,515002	241,316230	93,515	0,025819	22,310000	51,375000
2,542046	261,631970	94,867	0,034393	22,310000	51,375000
2,569073	277,629545	96,220	0,041144	22,320000	51,415000
2,596062	296,526724	97,573	0,049118	22,300000	51,390000
2,623052	317,172227	98,926	0,057831	22,300000	51,390000
2,650054	333,444026	100,280	0,064697	22,310000	51,405000
2,677037	352,528649	101,632	0,072751	22,300000	51,390000
2,704020	372,923069	102,985	0,081357	22,300000	51,390000
2,731039	389,664636	104,338	0,088422	22,300000	51,390000
2,758012	408,993400	105,690	0,096579	22,320000	51,375000
2,785047	428,172902	107,042	0,104673	22,320000	51,375000
2,812038	446,114346	108,394	0,112244	22,320000	51,375000
2,839083	465,725433	109,746	0,120520	22,310000	51,390000
2,851047	474,745909	111,097	0,124327	22,310000	51,390000
2,851038	473,249824	112,450	0,123695	22,310000	51,390000
2,850985	471,838205	113,804	0,123100	22,300000	51,375000
2,851044	471,454060	115,157	0,122938	22,300000	51,375000
2,850971	470,921810	116,508	0,122713	22,310000	51,375000
2,850941	470,600146	117,860	0,122577	22,300000	51,365000
2,850988	469,902436	119,211	0,122283	22,300000	51,365000
2,848054	469,503249	120,565	0,122114	22,300000	51,405000
2,821007	448,050115	121,918	0,113061	22,300000	51,405000
2,794047	426,942943	123,270	0,104154	22,300000	51,405000
2,767021	403,797023	124,625	0,094386	22,310000	51,390000
2,739974	385,479534	125,978	0,086656	22,300000	51,390000
2,713016	363,627212	127,331	0,077435	22,310000	51,350000
2,686015	341,901011	128,682	0,068266	22,310000	51,350000
2,659060	324,563555	130,032	0,060950	22,300000	51,365000
2,632063	303,784990	131,386	0,052181	22,300000	51,365000
2,605021	284,792932	132,738	0,044167	22,300000	51,365000
2,578049	261,968676	134,090	0,034535	22,290000	51,405000
2,551005	245,243308	135,441	0,027477	22,310000	51,375000
2,524082	225,750241	136,794	0,019250	22,310000	51,375000
2,497012	205,981792	138,147	0,010908	22,310000	51,375000
2,470033	184,419894	139,498	0,001809	22,310000	51,375000
2,442975	165,437093	140,852	-0,006202	22,310000	51,375000
2,416022	146,053947	142,206	-0,014381	22,310000	51,375000
2,389050	127,296773	143,557	-0,022297	22,320000	51,375000
2,362145	110,327264	144,908	-0,029458	22,320000	51,375000
2,335056	90,897836	146,262	-0,037657	22,310000	51,390000
2,308020	72,219342	147,613	-0,045540	22,310000	51,390000
2,281046	50,728025	148,966	-0,054609	22,310000	51,390000
2,254119	34,221342	150,318	-0,061575	22,300000	51,375000
2,227059	13,372195	151,671	-0,070373	22,300000	51,375000
2,200092	-5,697386	153,023	-0,078420	22,300000	51,375000
2,173041	-22,776816	154,375	-0,085628	22,310000	51,365000
2,146010	-40,921903	155,727	-0,093285	22,310000	51,365000
2,119028	-61,676170	157,078	-0,102043	22,310000	51,365000
2,092012	-78,865521	158,430	-0,109297	22,310000	51,375000
2,065094	-95,976192	159,783	-0,116518	22,310000	51,375000
2,038039	-114,175661	161,134	-0,124198	22,310000	51,375000
2,011088	-132,618113	162,485	-0,131981	22,310000	51,390000
1,984062	-153,741484	163,836	-0,140895	22,310000	51,390000
1,957138	-169,589797	165,188	-0,147583	22,310000	51,390000
1,930035	-189,583873	166,541	-0,156021	22,320000	51,365000
1,903032	-204,939277	167,892	-0,162500	22,300000	51,375000
1,876086	-223,020725	169,242	-0,170131	22,300000	51,375000
1,849098	-240,100156	170,594	-0,177338	22,310000	51,405000
1,822083	-257,493150	171,949	-0,184678	22,310000	51,405000
1,795067	-275,738901	173,300	-0,192378	22,300000	51,390000
1,768110	-293,939527	174,652	-0,200059	22,300000	51,390000
1,741147	-310,767874	176,005	-0,207160	22,310000	51,405000
1,714096	-328,928003	177,355	-0,214824	22,310000	51,350000
1,687072	-346,312898	178,708	-0,222160	22,310000	51,350000
1,660088	-362,921403	180,062	-0,229169	22,300000	51,390000
1,633071	-378,973360	181,413	-0,235943	22,300000	51,390000
1,606072	-395,824848	182,764	-0,243054	22,300000	51,390000
1,579059	-412,229710	184,116	-0,249977	22,310000	51,350000
1,552137	-425,641245	185,467	-0,255637	22,310000	51,365000
1,525087	-440,846231	186,818	-0,262053	22,310000	51,365000
1,498135	-456,028075	188,173	-0,268460	22,320000	51,390000
1,471080	-474,511025	189,525	-0,276260	22,310000	51,350000
1,444076	-491,032750	190,879	-0,283232	22,310000	51,350000
1,417085	-506,795440	192,231	-0,289884	22,320000	51,390000
1,390096	-519,884155	193,586	-0,295407	22,300000	51,365000
1,363103	-534,863513	194,939	-0,301729	22,300000	51,365000
1,336103	-551,244076	196,293	-0,308641	22,300000	51,365000
1,309179	-563,808640	197,644	-0,313943	22,300000	51,390000
1,282078	-576,514366	198,997	-0,319305	22,300000	51,390000
1,255111	-589,077773	200,349	-0,324607	22,310000	51,375000
1,228125	-602,998417	201,700	-0,330481	22,310000	51,375000
1,201170	-616,040849	203,055	-0,335985	22,310000	51,375000
1,174122	-625,446627	204,407	-0,339955	22,310000	51,375000
1,147134	-636,788174	205,760	-0,344741	22,310000	51,405000
1,120078	-647,220268	207,112	-0,349143	22,310000	51,405000
1,093116	-659,589288	208,464	-0,354363	22,310000	51,405000
1,066116	-669,942702	209,816	-0,358732	22,310000	51,390000
1,039106	-680,358597	211,171	-0,363127	22,310000	51,390000
1,012100	-690,077940	212,522	-0,367229	22,310000	51,390000
0,985081	-697,579189	213,876	-0,370395	22,300000	51,365000
0,958113	-701,097823	215,228	-0,371879	22,300000	51,365000
0,931122	-696,717176	216,580	-0,370031	22,300000	51,365000
0,904126	-692,445294	217,934	-0,368228	22,300000	51,375000
0,877163	-662,151029	219,288	-0,355444	22,300000	51,375000
0,850103	-0,610930	220,642	-0,076274	22,300000	51,375000
0,823097	-0,422329	221,992	-0,076194	22,320000	51,390000
0,796068	-0,249926	223,342	-0,076122	22,300000	51,375000
0,769102	-0,344805	224,693	-0,076162	22,300000	51,375000
0,742097	-0,305465	226,045	-0,076145	22,300000	51,375000
0,715133	-0,187444	227,398	-0,076095	22,310000	51,430000
0,688112	-0,210586	228,751	-0,076105	22,310000	51,430000
0,661145	-0,313564	230,105	-0,076148	22,310000	51,350000
0,652094	-0,101822	230,556	-0,076059	22,310000	51,350000