File: Nanoindentation Datenauswertung/data/PDMS/12.09/EM-PDMS-125-10-125, 20nms,2,5um-3
Quasi static measurement routine
Tip parameters (shape,radius, material...)
12.09.2022

Piezo position[nm]	MEMS displ.[nm]	Time[ms]	Cap [pf]	Temp [°C]	Rh [%]
eoh
0,652159	-0,251083	0,200	-0,076042	22,310000	51,375000
0,682152	-0,016199	1,703	-0,075943	22,310000	51,390000
0,712109	-0,195544	3,203	-0,076019	22,310000	51,390000
0,742079	-0,016199	4,707	-0,075943	22,310000	51,390000
0,772152	-0,101822	6,210	-0,075979	22,310000	51,405000
0,802098	-0,321664	7,712	-0,076072	22,300000	51,390000
0,832133	-0,133062	9,213	-0,075993	22,300000	51,390000
0,862123	-0,203643	10,716	-0,076022	22,300000	51,390000
0,892084	-0,008099	12,220	-0,075940	22,300000	51,390000
0,922114	-0,384145	13,724	-0,076099	22,300000	51,390000
0,952145	-0,367947	15,226	-0,076092	22,320000	51,390000
0,982125	-0,039340	16,726	-0,075953	22,320000	51,390000
1,012114	-0,149261	18,228	-0,076000	22,300000	51,390000
1,042125	-0,242984	19,729	-0,076039	22,310000	51,375000
1,072045	-0,485967	21,232	-0,076142	22,300000	51,405000
1,102138	-0,274224	22,733	-0,076052	22,300000	51,405000
1,132165	-0,133062	24,236	-0,075993	22,310000	51,375000
1,162116	-0,164303	25,741	-0,076006	22,320000	51,375000
1,192089	-0,156204	27,245	-0,076002	22,300000	51,405000
1,222136	-0,234884	28,750	-0,076036	22,300000	51,405000
1,252086	-0,305465	30,250	-0,076065	22,300000	51,405000
1,282137	-0,203643	31,752	-0,076022	22,300000	51,415000
1,312119	-0,226785	33,253	-0,076032	22,300000	51,415000
1,342082	-0,336706	34,755	-0,076079	22,300000	51,415000
1,372105	-0,313564	36,258	-0,076069	22,300000	51,375000
1,402148	-0,658370	37,761	-0,076214	22,310000	51,375000
1,432138	-0,454726	39,263	-0,076128	22,320000	51,375000
1,462114	-0,438527	40,768	-0,076122	22,320000	51,375000
1,492119	-0,242984	42,273	-0,076039	22,320000	51,375000
1,522099	-0,446627	43,779	-0,076125	22,310000	51,390000
1,552052	-0,367947	45,281	-0,076092	22,310000	51,375000
1,582084	-0,446627	46,785	-0,076125	22,310000	51,375000
1,612174	-0,359847	48,288	-0,076088	22,310000	51,375000
1,642107	-0,579689	49,790	-0,076181	22,310000	51,365000
1,672108	-0,571590	51,292	-0,076178	22,310000	51,365000
1,702073	-0,627129	52,793	-0,076201	22,310000	51,365000
1,732091	-0,642171	54,296	-0,076208	22,310000	51,375000
1,762129	-0,603988	55,799	-0,076191	22,310000	51,375000
1,792099	-0,603988	57,301	-0,076191	22,290000	51,390000
1,822080	-0,737050	58,801	-0,076248	22,290000	51,390000
1,852119	-0,541506	60,304	-0,076165	22,290000	51,390000
1,882135	-156,116938	61,805	-0,141818	22,290000	51,390000
1,912065	-149,791266	63,308	-0,139148	22,300000	51,375000
1,942101	-135,988642	64,808	-0,133324	22,300000	51,375000
1,972126	-119,176494	66,309	-0,126229	22,310000	51,375000
2,002076	-98,962576	67,813	-0,117699	22,310000	51,375000
2,032043	-81,953727	69,320	-0,110521	22,310000	51,405000
2,062096	-62,719842	70,822	-0,102404	22,310000	51,375000
2,092086	-41,071164	72,326	-0,093269	22,310000	51,375000
2,122109	-24,047273	73,828	-0,086084	22,310000	51,375000
2,152052	-2,695960	75,330	-0,077074	22,310000	51,365000
2,182064	17,258775	76,833	-0,068653	22,300000	51,390000
2,212048	35,788007	78,340	-0,060834	22,300000	51,390000
2,242083	55,547199	79,841	-0,052496	22,300000	51,390000
2,272074	75,432511	81,345	-0,044104	22,290000	51,390000
2,302102	97,692119	82,848	-0,034710	22,310000	51,390000
2,332025	116,761700	84,352	-0,026663	22,310000	51,390000
2,362056	135,573256	85,855	-0,018725	22,310000	51,365000
2,392064	158,970259	87,359	-0,008851	22,300000	51,405000
2,422054	178,972434	88,862	-0,000410	22,310000	51,430000
2,452084	199,617937	90,364	0,008302	22,310000	51,430000
2,482068	217,903029	91,866	0,016019	22,310000	51,415000
2,512084	237,937602	93,368	0,024473	22,310000	51,415000
2,542061	258,590047	94,868	0,033188	22,310000	51,390000
2,572057	280,842713	96,370	0,042579	22,310000	51,390000
2,602046	299,677410	97,871	0,050527	22,300000	51,405000
2,632069	323,050115	99,375	0,060391	22,300000	51,405000
2,662050	341,625629	100,878	0,068229	22,310000	51,405000
2,692008	363,000083	102,380	0,077250	22,310000	51,405000
2,722026	382,555632	103,881	0,085502	22,310000	51,405000
2,752089	403,772725	105,382	0,094456	22,320000	51,405000
2,782040	424,410128	106,884	0,103165	22,310000	51,390000
2,812039	447,932094	108,386	0,113091	22,310000	51,390000
2,842062	469,111004	109,889	0,122028	22,300000	51,405000
2,872071	489,599147	111,390	0,130674	22,310000	51,405000
2,902015	511,513950	112,891	0,139922	22,310000	51,405000
2,932027	530,035082	114,392	0,147738	22,310000	51,405000
2,961973	551,558797	115,894	0,156821	22,310000	51,350000
2,992016	573,058214	117,398	0,165894	22,310000	51,350000
3,022053	596,304799	118,903	0,175704	22,310000	51,350000
3,052023	617,757933	120,405	0,184757	22,310000	51,350000
3,082005	638,034332	121,908	0,193314	22,300000	51,365000
3,112033	658,679836	123,410	0,202026	22,310000	51,365000
3,142007	682,758349	124,913	0,212188	22,320000	51,390000
3,150992	688,002166	126,417	0,214400	22,320000	51,390000
3,151001	686,974693	127,920	0,213967	22,300000	51,405000
3,151011	686,222601	129,423	0,213649	22,300000	51,405000
3,150991	685,406870	130,925	0,213305	22,310000	51,390000
3,151005	684,999583	132,426	0,213133	22,310000	51,390000
3,151049	684,505517	133,928	0,212925	22,310000	51,390000
3,150984	684,004508	135,430	0,212713	22,310000	51,390000
3,120959	662,300291	136,934	0,203554	22,300000	51,405000
3,091010	638,426577	138,440	0,193479	22,300000	51,405000
3,061047	615,367437	139,940	0,183749	22,310000	51,375000
3,030990	592,370779	141,442	0,174044	22,310000	51,390000
3,000928	569,397262	142,944	0,164349	22,310000	51,390000
2,970992	544,456735	144,448	0,153824	22,310000	51,390000
2,941040	523,247741	145,951	0,144874	22,290000	51,405000
2,910983	501,669644	147,453	0,135768	22,320000	51,405000
2,881047	479,057131	148,955	0,126226	22,310000	51,375000
2,851032	454,312148	150,456	0,115783	22,310000	51,375000
2,820972	434,819081	151,958	0,107557	22,310000	51,405000
2,791013	409,807974	153,459	0,097002	22,310000	51,405000
2,761042	390,432927	154,962	0,088826	22,310000	51,365000
2,731025	368,385062	156,466	0,079522	22,310000	51,365000
2,701087	346,595222	157,970	0,070327	22,310000	51,365000
2,671064	322,258683	159,473	0,060057	22,320000	51,350000
2,641040	303,133562	160,975	0,051986	22,310000	51,365000
2,611102	281,163220	162,479	0,042714	22,310000	51,365000
2,581019	259,868604	163,980	0,033728	22,310000	51,365000
2,551072	238,234967	165,482	0,024599	22,320000	51,375000
2,521090	217,041016	166,983	0,015655	22,310000	51,405000
2,491119	192,916219	168,483	0,005474	22,310000	51,405000
2,461033	174,442526	169,988	-0,002322	22,300000	51,375000
2,431092	151,029325	171,490	-0,012202	22,310000	51,375000
2,401023	130,416219	172,994	-0,020901	22,310000	51,375000
2,371095	110,194202	174,496	-0,029435	22,310000	51,375000
2,341060	90,057807	175,996	-0,037932	22,310000	51,375000
2,311146	66,215334	177,500	-0,047994	22,300000	51,350000
2,281059	48,148928	179,006	-0,055618	22,310000	51,390000
2,251048	26,672653	180,509	-0,064681	22,310000	51,390000
2,221066	6,215751	182,010	-0,073313	22,310000	51,365000
2,191069	-14,061806	183,512	-0,081871	22,300000	51,365000
2,161086	-34,683011	185,017	-0,090573	22,310000	51,365000
2,131141	-55,249833	186,522	-0,099252	22,310000	51,365000
2,101113	-75,698636	188,026	-0,107881	22,310000	51,390000
2,071117	-95,583947	189,529	-0,116273	22,310000	51,365000
2,041077	-118,636145	191,033	-0,126001	22,310000	51,365000
2,011088	-139,570914	192,534	-0,134835	22,310000	51,365000
1,981097	-159,173902	194,036	-0,143108	22,310000	51,365000
1,951103	-177,420811	195,540	-0,150808	22,310000	51,390000
1,921124	-197,273724	197,045	-0,159186	22,310000	51,350000
1,891116	-218,969842	198,548	-0,168342	22,310000	51,350000
1,861123	-237,271133	200,051	-0,176065	22,320000	51,390000
1,831097	-258,284582	201,558	-0,184933	22,310000	51,405000
1,801055	-275,818739	203,061	-0,192332	22,310000	51,405000
1,771056	-294,496075	204,564	-0,200214	22,310000	51,405000
1,741112	-315,478284	206,069	-0,209068	22,310000	51,375000
1,711079	-334,414803	207,570	-0,217060	22,310000	51,405000
1,681156	-352,858412	209,075	-0,224843	22,310000	51,375000
1,651094	-371,543848	210,578	-0,232728	22,310000	51,375000
1,621142	-390,574089	212,080	-0,240759	22,310000	51,390000
1,591136	-410,052114	213,583	-0,248979	22,300000	51,375000
1,561069	-429,184177	215,085	-0,257052	22,320000	51,415000
1,531162	-447,046940	216,588	-0,264590	22,320000	51,415000
1,501163	-465,050865	218,091	-0,272188	22,310000	51,365000
1,471077	-479,691203	219,593	-0,278366	22,300000	51,365000
1,441168	-496,448969	221,096	-0,285438	22,310000	51,405000
1,411118	-514,390412	222,598	-0,293009	22,310000	51,405000
1,381080	-530,747834	224,098	-0,299912	22,310000	51,405000
1,351096	-547,365595	225,602	-0,306925	22,300000	51,340000
1,321138	-560,728534	227,102	-0,312564	22,310000	51,375000
1,291115	-576,459984	228,605	-0,319203	22,310000	51,375000
1,261090	-592,590621	230,110	-0,326010	22,310000	51,375000
1,231133	-608,297773	231,612	-0,332638	22,300000	51,390000
1,201160	-622,492641	233,115	-0,338628	22,320000	51,390000
1,171149	-633,214001	234,620	-0,343153	22,320000	51,390000
1,141121	-647,354488	236,122	-0,349120	22,300000	51,375000
1,111158	-659,024641	237,623	-0,354045	22,300000	51,390000
1,081139	-667,748908	239,126	-0,357727	22,310000	51,365000
1,051105	-677,342130	240,628	-0,361775	22,310000	51,365000
1,021200	-685,383729	242,131	-0,365168	22,310000	51,365000
0,991122	-691,834364	243,634	-0,367891	22,310000	51,390000
0,961068	-694,178577	245,140	-0,368880	22,310000	51,390000
0,931122	-692,305289	246,640	-0,368089	22,310000	51,390000
0,901123	-690,235301	248,146	-0,367216	22,310000	51,405000
0,871148	-0,705809	249,650	-0,076234	22,320000	51,390000
0,841153	-0,658370	251,154	-0,076214	22,310000	51,375000
0,811159	-0,477868	252,655	-0,076138	22,310000	51,375000
0,781104	-0,290423	254,160	-0,076059	22,310000	51,375000
0,751125	-0,321664	255,664	-0,076072	22,310000	51,390000
0,721130	-0,234884	257,166	-0,076036	22,310000	51,350000
0,691145	-0,321664	258,670	-0,076072	22,310000	51,350000
0,661151	-0,274224	260,173	-0,076052	22,310000	51,405000
0,652184	-0,047440	260,623	-0,075957	22,310000	51,405000