File: Nanoindentation Datenauswertung/data/PDMS/12.09/PM-PDMS-150ms,3um,20nms,9cycles,1,5um offset
Quasi static measurement routine
Tip parameters (shape,radius, material...)
12.09.2022

Piezo position[nm]	MEMS displ.[nm]	Time[ms]	Cap [pf]	Temp [°C]	Rh [%]
eoh
0,650123	-0,070581	0,195	-0,075811	22,310000	51,625000
0,713173	-0,015042	3,349	-0,075788	22,310000	51,640000
0,776113	0,172403	6,504	-0,075708	22,300000	51,600000
0,839115	-0,062481	9,661	-0,075808	22,300000	51,625000
0,902113	-0,305465	12,854	-0,075910	22,300000	51,625000
0,965099	-0,116864	16,006	-0,075831	22,300000	51,590000
1,028163	-0,336706	19,157	-0,075923	22,300000	51,590000
1,091174	-0,289266	22,314	-0,075903	22,310000	51,600000
1,154144	-0,203643	25,466	-0,075867	22,300000	51,600000
1,217065	-0,179345	28,620	-0,075857	22,300000	51,615000
1,280118	-0,384145	31,773	-0,075943	22,300000	51,650000
1,343149	-0,266125	34,929	-0,075894	22,300000	51,600000
1,406147	-0,391088	38,084	-0,075946	22,310000	51,640000
1,469086	-0,485967	41,241	-0,075986	22,300000	51,625000
1,532084	-0,517208	44,399	-0,076000	22,310000	51,640000
1,595115	-0,532250	47,557	-0,076006	22,300000	51,600000
1,658111	-0,642171	50,713	-0,076052	22,300000	51,600000
1,721092	-0,602831	53,866	-0,076036	22,310000	51,590000
1,784039	-0,822673	57,023	-0,076128	22,310000	51,625000
1,847098	-0,901353	60,180	-0,076162	22,310000	51,625000
1,910092	-151,116104	63,335	-0,139552	22,300000	51,625000
1,973083	-114,339964	66,495	-0,124033	22,310000	51,600000
2,036113	-77,548782	69,649	-0,108507	22,300000	51,600000
2,099004	-37,245909	72,810	-0,091499	22,310000	51,600000
2,162041	4,491725	75,969	-0,073886	22,310000	51,615000
2,225052	48,626796	79,123	-0,055261	22,310000	51,615000
2,288073	89,689860	82,277	-0,037932	22,310000	51,625000
2,318065	108,908703	85,433	-0,029822	22,310000	51,640000
2,318029	105,876037	88,591	-0,031102	22,310000	51,600000
2,318085	104,644920	91,749	-0,031621	22,300000	51,600000
2,297100	88,013274	94,906	-0,038640	22,310000	51,640000
2,315049	101,855237	97,948	-0,032798	22,300000	51,625000
2,378022	144,799689	101,104	-0,014676	22,300000	51,615000
2,441040	189,476266	104,261	0,004178	22,310000	51,600000
2,486041	221,140495	107,416	0,017540	22,310000	51,600000
2,486035	218,672477	110,572	0,016499	22,290000	51,610000
2,486072	217,433261	113,729	0,015976	22,300000	51,600000
2,480061	214,047690	116,884	0,014547	22,300000	51,625000
2,417093	162,889237	120,037	-0,007042	22,310000	51,640000
2,447068	184,874620	123,079	0,002236	22,310000	51,615000
2,510099	231,831772	126,233	0,022052	22,310000	51,615000
2,573061	277,590205	129,388	0,041362	22,310000	51,615000
2,636076	322,721508	132,545	0,060407	22,310000	51,625000
2,654087	334,744566	135,703	0,065481	22,300000	51,640000
2,654075	332,887478	138,858	0,064697	22,300000	51,640000
2,654029	331,774382	142,017	0,064228	22,310000	51,640000
2,621115	306,472851	145,171	0,053550	22,310000	51,640000
2,558048	259,578181	148,325	0,033761	22,310000	51,615000
2,558048	256,584854	151,371	0,032498	22,310000	51,640000
2,621123	306,935676	154,525	0,053746	22,310000	51,615000
2,684089	354,002749	157,682	0,073608	22,300000	51,640000
2,747075	399,485801	160,835	0,092802	22,310000	51,640000
2,810079	445,158610	163,991	0,112076	22,310000	51,640000
2,822054	451,350063	167,144	0,114688	22,310000	51,640000
2,822084	449,798439	170,297	0,114034	22,300000	51,640000
2,822017	448,662202	173,451	0,113554	22,290000	51,610000
2,782987	419,958901	176,608	0,101441	22,290000	51,610000
2,720010	371,755591	179,768	0,081100	22,320000	51,640000
2,657098	321,678993	182,922	0,059967	22,300000	51,600000
2,711025	365,203134	185,971	0,078334	22,310000	51,625000
2,774048	410,866688	189,126	0,097604	22,310000	51,615000
2,837016	457,597055	192,281	0,117325	22,300000	51,625000
2,899988	504,045098	195,436	0,136926	22,300000	51,625000
2,963097	549,724850	198,592	0,156203	22,300000	51,625000
2,990062	569,993150	201,745	0,164756	22,310000	51,640000
2,990073	568,387145	204,900	0,164078	22,310000	51,650000
2,990038	567,556372	208,059	0,163728	22,300000	51,600000
2,966048	547,694202	211,214	0,155346	22,300000	51,640000
2,903035	500,761348	214,374	0,135540	22,300000	51,600000
2,840046	450,527390	217,527	0,114341	22,300000	51,615000
2,780061	405,662211	220,682	0,095408	22,310000	51,625000
2,843033	453,661878	223,720	0,115664	22,310000	51,615000
2,906010	504,406102	226,877	0,137078	22,300000	51,625000
2,969052	549,481866	230,032	0,156100	22,290000	51,620000
3,032018	596,682002	233,189	0,176019	22,310000	51,615000
3,095012	645,583022	236,346	0,196655	22,300000	51,590000
3,157983	689,335104	239,504	0,215118	22,310000	51,625000
3,157970	689,522549	242,662	0,215197	22,300000	51,600000
3,157980	688,033407	245,819	0,214569	22,310000	51,615000
3,157964	687,123954	248,971	0,214185	22,310000	51,615000
3,107051	649,007933	252,123	0,198100	22,300000	51,625000
3,044037	597,880721	255,276	0,176524	22,300000	51,615000
2,981011	552,154686	258,429	0,157228	22,320000	51,615000
2,918076	504,639829	261,586	0,137177	22,300000	51,590000
2,954001	530,098721	264,632	0,147920	22,300000	51,625000
3,017005	579,054123	267,788	0,168580	22,300000	51,625000
3,080006	629,468583	270,943	0,189854	22,290000	51,595000
3,143030	675,030315	274,101	0,209082	22,300000	51,615000
3,206095	721,611421	277,251	0,228739	22,310000	51,640000
3,268980	769,148262	280,406	0,248799	22,310000	51,665000
3,325992	812,281315	283,565	0,267001	22,310000	51,640000
3,326040	809,953301	286,722	0,266019	22,300000	51,600000
3,325993	808,887644	289,877	0,265569	22,300000	51,625000
3,326001	808,048773	293,031	0,265215	22,290000	51,610000
3,269061	765,010599	296,185	0,247053	22,300000	51,600000
3,205980	716,070238	299,341	0,226400	22,300000	51,600000
3,142995	665,961243	302,498	0,205254	22,310000	51,615000
3,080017	620,540673	305,655	0,186087	22,310000	51,640000
3,044020	589,839122	308,695	0,173131	22,300000	51,615000
3,107091	640,299865	311,854	0,194425	22,300000	51,600000
3,170044	688,770457	315,010	0,214880	22,300000	51,600000
3,233037	737,530315	318,165	0,235457	22,300000	51,625000
3,295985	784,275724	321,319	0,255183	22,300000	51,625000
3,358976	832,738216	324,479	0,275634	22,300000	51,615000
3,421952	880,409277	327,633	0,295751	22,300000	51,600000
3,484981	924,591788	330,792	0,314396	22,310000	51,615000
3,493921	931,638311	333,948	0,317370	22,310000	51,640000
3,493944	929,983709	337,105	0,316672	22,310000	51,600000
3,493894	929,152936	340,262	0,316321	22,300000	51,600000
3,451959	897,659953	343,415	0,303031	22,300000	51,600000
3,388904	846,242317	346,573	0,281333	22,300000	51,625000
3,325953	797,749741	349,724	0,260869	22,310000	51,625000
3,263022	752,194951	352,879	0,241645	22,300000	51,600000
3,200014	705,065397	356,036	0,221756	22,300000	51,650000
3,176001	683,769624	359,074	0,212770	22,310000	51,615000
3,238977	734,073006	362,231	0,233998	22,310000	51,600000
3,302014	782,958984	365,385	0,254627	22,300000	51,590000
3,365035	833,404686	368,540	0,275916	22,310000	51,615000
3,427949	881,302531	371,695	0,296128	22,310000	51,600000
3,490915	926,386395	374,848	0,315154	22,310000	51,615000
3,553929	974,863929	378,003	0,335611	22,310000	51,600000
3,616925	1020,802864	381,163	0,354998	22,300000	51,590000
3,661885	1054,983709	384,317	0,369422	22,300000	51,615000
3,661862	1053,172902	387,472	0,368658	22,300000	51,615000
3,661907	1052,060963	390,630	0,368188	22,310000	51,650000
3,655896	1045,766532	393,784	0,365532	22,300000	51,625000
3,592896	998,064231	396,942	0,345402	22,300000	51,590000
3,529884	949,304373	400,098	0,324825	22,320000	51,600000
3,466970	900,301531	403,253	0,304146	22,320000	51,600000
3,403907	852,717250	406,408	0,284065	22,310000	51,640000
3,340967	804,090455	409,566	0,263545	22,310000	51,615000
3,277928	755,690444	412,721	0,243120	22,310000	51,600000
3,214974	710,669061	415,879	0,224121	22,310000	51,615000
3,152068	662,035323	419,035	0,203598	22,300000	51,600000
3,089030	614,866428	422,188	0,183692	22,310000	51,590000
3,026040	570,589038	425,341	0,165007	22,300000	51,615000
2,963076	524,047273	428,495	0,145367	22,300000	51,600000
2,900015	475,804623	431,655	0,125008	22,300000	51,600000
2,837053	431,896336	434,811	0,106479	22,300000	51,600000
2,774104	386,208485	437,965	0,087199	22,290000	51,585000
2,711046	338,404362	441,120	0,067025	22,290000	51,585000
2,648070	293,203634	444,275	0,047951	22,310000	51,625000
2,585105	249,569572	447,433	0,029537	22,300000	51,615000
2,522074	202,581180	450,587	0,009708	22,310000	51,640000
2,459100	160,436260	453,744	-0,008077	22,310000	51,590000
2,396105	115,422977	456,899	-0,027073	22,300000	51,625000
2,333115	70,275474	460,051	-0,046125	22,310000	51,615000
2,270117	24,032231	463,207	-0,065640	22,310000	51,625000
2,207091	-17,549198	466,363	-0,083187	22,310000	51,600000
2,144087	-60,782916	469,515	-0,101432	22,300000	51,600000
2,081091	-104,683103	472,671	-0,119958	22,310000	51,615000
2,018109	-148,403945	475,829	-0,138408	22,310000	51,615000
1,955126	-186,723610	478,986	-0,154579	22,310000	51,615000
1,892091	-228,328181	482,139	-0,172136	22,300000	51,615000
1,829156	-272,282750	485,296	-0,190685	22,310000	51,615000
1,766107	-315,933011	488,452	-0,209105	22,290000	51,635000
1,703124	-358,148512	491,606	-0,226920	22,310000	51,625000
1,640122	-395,323839	494,768	-0,242608	22,320000	51,625000
1,577137	-434,058890	497,927	-0,258954	22,300000	51,625000
1,514102	-472,048791	501,084	-0,274986	22,300000	51,625000
1,451144	-505,588622	504,239	-0,289140	22,310000	51,625000
1,388177	-536,375796	507,394	-0,302132	22,310000	51,615000
1,325136	-569,200561	510,549	-0,315984	22,310000	51,615000
1,262152	-603,421903	513,702	-0,330425	22,310000	51,640000
1,199203	-638,081772	516,860	-0,345052	22,300000	51,615000
1,136092	-666,893837	520,016	-0,357210	22,300000	51,615000
1,073158	-690,453986	523,175	-0,367153	22,320000	51,615000
1,010096	-712,345648	526,335	-0,376391	22,310000	51,625000
0,947189	-727,003342	529,492	-0,382577	22,310000	51,625000
0,884134	-732,802549	532,649	-0,385024	22,300000	51,625000
0,821141	-0,540349	535,811	-0,076009	22,310000	51,625000
0,758111	-0,148104	538,969	-0,075844	22,310000	51,625000
0,695140	-0,101822	542,130	-0,075824	22,310000	51,625000
0,650128	0,039340	544,383	-0,075765	22,310000	51,575000