File: Nanoindentation Datenauswertung/data/PDMS_10-1/30.09/APM-PDMS10-1-100ms,4um,20nms,2um offset,16cycles(5x1)
Quasi static measurement routine
Tip parameters (shape,radius, material...)
30.09.2022

Piezo position[nm]	MEMS displ.[nm]	Time[ms]	Cap [pf]	Temp [°C]	Rh [%]
eoh

X-Pos [um]	Y-Pos [um]
0,000314	0,000635

POC
3,423894
1,525989	0,219842	6,180	-0,076125	0,000000	0,000000
1,629993	0,094879	11,400	-0,076178	0,000000	0,000000
1,733929	-0,187444	16,616	-0,076297	0,000000	0,000000
1,837934	0,306622	21,826	-0,076088	0,000000	0,000000
1,941944	0,274224	27,037	-0,076102	0,000000	0,000000
2,045984	0,336706	32,248	-0,076076	0,000000	0,000000
2,149934	-0,039340	37,462	-0,076234	0,000000	0,000000
2,253966	0,024298	42,677	-0,076208	0,000000	0,000000
2,357982	0,016199	47,894	-0,076211	0,000000	0,000000
2,461938	0,164303	53,110	-0,076148	0,000000	0,000000
2,565944	0,086780	58,326	-0,076181	0,000000	0,000000
2,669929	0,227942	63,539	-0,076122	0,000000	0,000000
2,773886	0,259182	68,752	-0,076108	0,000000	0,000000
2,877924	0,219842	73,971	-0,076125	0,000000	0,000000
2,981909	0,109921	79,186	-0,076171	0,000000	0,000000
3,085856	-195,471018	84,401	-0,158707	0,000000	0,000000
3,189863	-139,758359	89,612	-0,135196	0,000000	0,000000
3,293872	-79,202227	94,835	-0,109641	0,000000	0,000000
3,397851	-15,817073	100,053	-0,082893	0,000000	0,000000
3,501829	50,312639	105,277	-0,054986	0,000000	0,000000
3,547828	76,397503	110,494	-0,043978	0,000000	0,000000
3,547807	73,990808	115,708	-0,044994	0,000000	0,000000
3,551834	76,082781	120,856	-0,044111	0,000000	0,000000
3,655826	144,484967	126,073	-0,015245	0,000000	0,000000
3,671780	153,357339	131,294	-0,011501	0,000000	0,000000
3,671780	151,562731	136,509	-0,012258	0,000000	0,000000
3,641829	129,859671	141,655	-0,021417	0,000000	0,000000
3,745783	200,918478	146,867	0,008570	0,000000	0,000000
3,795811	233,563898	152,086	0,022346	0,000000	0,000000
3,795782	231,894254	157,300	0,021642	0,000000	0,000000
3,733776	187,594879	162,510	0,002947	0,000000	0,000000
3,775777	216,971592	167,674	0,015344	0,000000	0,000000
3,879799	287,661295	172,893	0,045175	0,000000	0,000000
3,919792	313,847980	178,112	0,056226	0,000000	0,000000
3,919819	312,147095	183,324	0,055508	0,000000	0,000000
3,847770	261,262867	188,540	0,034035	0,000000	0,000000
3,845796	261,232783	193,698	0,034022	0,000000	0,000000
3,949821	333,091121	198,919	0,064347	0,000000	0,000000
4,043750	396,617437	204,127	0,091155	0,000000	0,000000
4,043699	394,171403	209,347	0,090123	0,000000	0,000000
4,025711	381,435593	214,570	0,084748	0,000000	0,000000
3,921793	307,405445	219,785	0,053507	0,000000	0,000000
3,959745	335,770883	224,950	0,065478	0,000000	0,000000
4,063749	407,794681	230,161	0,095872	0,000000	0,000000
4,167737	477,206985	235,381	0,125164	0,000000	0,000000
4,167704	476,164470	240,597	0,124724	0,000000	0,000000
4,159722	470,513366	245,813	0,122339	0,000000	0,000000
4,055736	395,888487	251,030	0,090847	0,000000	0,000000
4,009761	363,000083	256,202	0,076968	0,000000	0,000000
4,113740	437,147095	261,420	0,108258	0,000000	0,000000
4,217808	509,931085	266,632	0,138973	0,000000	0,000000
4,291691	559,843380	271,853	0,160036	0,000000	0,000000
4,291703	558,495400	277,068	0,159467	0,000000	0,000000
4,253669	530,936436	282,282	0,147837	0,000000	0,000000
4,149722	457,408453	287,502	0,116809	0,000000	0,000000
4,103770	425,460743	292,650	0,103327	0,000000	0,000000
4,207757	500,039340	297,869	0,134799	0,000000	0,000000
4,311671	571,623454	303,090	0,165007	0,000000	0,000000
4,415668	644,727951	308,301	0,195857	0,000000	0,000000
4,415652	642,635978	313,525	0,194975	0,000000	0,000000
4,407679	636,631970	318,749	0,192441	0,000000	0,000000
4,303669	561,278140	323,964	0,160642	0,000000	0,000000
4,199701	488,321747	329,180	0,129854	0,000000	0,000000
4,237695	516,780908	334,327	0,141864	0,000000	0,000000
4,341707	589,196951	339,542	0,172423	0,000000	0,000000
4,445673	662,779315	344,787	0,203475	0,000000	0,000000
4,539634	728,257600	350,006	0,231107	0,000000	0,000000
4,539651	726,133229	355,225	0,230210	0,000000	0,000000
4,521628	712,973934	360,442	0,224657	0,000000	0,000000
4,417722	638,011191	365,662	0,193023	0,000000	0,000000
4,313741	564,318906	370,877	0,161925	0,000000	0,000000
4,311705	564,318906	376,033	0,161925	0,000000	0,000000
4,415707	638,764440	381,251	0,193341	0,000000	0,000000
4,519623	710,943285	386,466	0,223800	0,000000	0,000000
4,623556	785,310140	391,680	0,255183	0,000000	0,000000
4,663595	811,128878	396,900	0,266079	0,000000	0,000000
4,663592	809,835280	402,117	0,265533	0,000000	0,000000
4,591616	757,579930	407,334	0,243481	0,000000	0,000000
4,487712	681,684593	412,547	0,211453	0,000000	0,000000
4,383681	610,092380	417,769	0,181241	0,000000	0,000000
4,425708	640,417885	422,963	0,194039	0,000000	0,000000
4,529673	716,257683	428,181	0,226043	0,000000	0,000000
4,633630	788,821831	433,392	0,256665	0,000000	0,000000
4,737588	862,858921	438,611	0,287909	0,000000	0,000000
4,787542	896,397595	443,825	0,302062	0,000000	0,000000
4,787569	894,814731	449,038	0,301394	0,000000	0,000000
4,725593	849,895170	454,255	0,282438	0,000000	0,000000
4,621576	774,909286	459,474	0,250794	0,000000	0,000000
4,517586	701,036498	464,690	0,219620	0,000000	0,000000
4,479670	673,391912	469,842	0,207954	0,000000	0,000000
4,583649	750,439685	475,060	0,240468	0,000000	0,000000
4,687635	823,418061	480,273	0,271265	0,000000	0,000000
4,791589	896,891662	485,491	0,302271	0,000000	0,000000
4,895591	970,207901	490,698	0,333210	0,000000	0,000000
4,911598	980,899178	495,911	0,337722	0,000000	0,000000
4,911533	979,950385	501,128	0,337321	0,000000	0,000000
4,815611	908,789757	506,347	0,307292	0,000000	0,000000
4,711593	834,721425	511,567	0,276035	0,000000	0,000000
4,607630	759,922986	516,779	0,244470	0,000000	0,000000
4,573651	736,448460	521,929	0,234563	0,000000	0,000000
4,677635	813,213909	527,142	0,266958	0,000000	0,000000
4,781607	886,835614	532,360	0,298027	0,000000	0,000000
4,885515	960,787082	537,585	0,329234	0,000000	0,000000
4,989504	1036,242734	542,800	0,361077	0,000000	0,000000
5,035544	1067,187269	548,014	0,374135	0,000000	0,000000
5,035496	1065,824247	553,230	0,373560	0,000000	0,000000
4,969520	1017,509858	558,449	0,353171	0,000000	0,000000
4,865563	941,584438	563,660	0,321131	0,000000	0,000000
4,761661	867,569331	568,877	0,289896	0,000000	0,000000
4,657639	793,258016	574,098	0,258537	0,000000	0,000000
4,711620	832,212909	579,256	0,274976	0,000000	0,000000
4,815574	907,732200	584,476	0,306845	0,000000	0,000000
4,919508	982,357079	589,693	0,338337	0,000000	0,000000
5,023532	1056,480950	594,912	0,369617	0,000000	0,000000
5,127481	1132,109005	600,128	0,401532	0,000000	0,000000
5,159461	1152,926911	605,340	0,410317	0,000000	0,000000
5,159508	1151,524548	610,557	0,409726	0,000000	0,000000
5,079480	1092,825505	615,766	0,384955	0,000000	0,000000
4,975514	1017,283074	620,980	0,353076	0,000000	0,000000
4,871565	942,688278	626,193	0,321597	0,000000	0,000000
4,767625	866,566156	631,412	0,289473	0,000000	0,000000
4,785629	882,657453	636,564	0,296264	0,000000	0,000000
4,889552	957,472092	641,774	0,327835	0,000000	0,000000
4,993487	1032,606080	646,995	0,359542	0,000000	0,000000
5,097516	1108,376453	652,203	0,391517	0,000000	0,000000
5,201438	1181,755174	657,418	0,422483	0,000000	0,000000
5,283453	1240,900844	662,628	0,447442	0,000000	0,000000
5,283431	1238,933834	667,850	0,446612	0,000000	0,000000
5,253417	1216,743650	673,061	0,437248	0,000000	0,000000
5,149522	1140,245483	678,279	0,404966	0,000000	0,000000
5,045494	1063,393254	683,499	0,372534	0,000000	0,000000
4,941507	988,188685	688,714	0,340798	0,000000	0,000000
4,837597	915,491475	693,927	0,310120	0,000000	0,000000
4,903532	963,443702	699,078	0,330355	0,000000	0,000000
5,007550	1039,096055	704,289	0,362281	0,000000	0,000000
5,111525	1114,339964	709,509	0,394034	0,000000	0,000000
5,215416	1190,855487	714,726	0,426323	0,000000	0,000000
5,319426	1265,606487	719,941	0,457868	0,000000	0,000000
5,407424	1328,175911	725,154	0,484272	0,000000	0,000000
5,407357	1326,256341	730,366	0,483462	0,000000	0,000000
5,383421	1306,880137	735,581	0,475286	0,000000	0,000000
5,279482	1231,432585	740,801	0,443447	0,000000	0,000000
5,175433	1155,740892	746,020	0,411505	0,000000	0,000000
5,071511	1080,229700	751,240	0,379639	0,000000	0,000000
4,967540	1003,989559	756,455	0,347466	0,000000	0,000000
4,863582	931,441610	761,667	0,316851	0,000000	0,000000
4,759582	856,048439	766,890	0,285035	0,000000	0,000000
4,655610	782,323756	772,108	0,253923	0,000000	0,000000
4,551690	709,830189	777,322	0,223331	0,000000	0,000000
4,447713	635,292089	782,547	0,191875	0,000000	0,000000
4,343616	562,421320	787,764	0,161124	0,000000	0,000000
4,239736	487,279232	792,979	0,129414	0,000000	0,000000
4,135712	414,668802	798,196	0,098772	0,000000	0,000000
4,031733	341,163961	803,410	0,067753	0,000000	0,000000
3,927818	265,935093	808,624	0,036007	0,000000	0,000000
3,823749	195,142412	813,832	0,006132	0,000000	0,000000
3,719807	124,850739	819,049	-0,023531	0,000000	0,000000
3,615780	50,335780	824,260	-0,054976	0,000000	0,000000
3,511845	-21,146512	829,484	-0,085142	0,000000	0,000000
3,407883	-91,288924	834,697	-0,114742	0,000000	0,000000
3,303862	-161,572497	839,912	-0,144401	0,000000	0,000000
3,199889	-230,953560	845,132	-0,173680	0,000000	0,000000
3,095824	-299,488809	850,349	-0,202602	0,000000	0,000000
2,991946	-367,859755	855,560	-0,231455	0,000000	0,000000
2,887919	-435,634812	860,777	-0,260056	0,000000	0,000000
2,783919	-501,912628	865,994	-0,288025	0,000000	0,000000
2,679941	-567,374713	871,210	-0,315650	0,000000	0,000000
2,575937	-629,529908	876,422	-0,341879	0,000000	0,000000
2,471962	-688,315731	881,644	-0,366687	0,000000	0,000000
2,367949	-751,426661	886,862	-0,393320	0,000000	0,000000
2,263971	-806,645253	892,073	-0,416622	0,000000	0,000000
2,159969	-858,885562	897,289	-0,438667	0,000000	0,000000
2,056002	-913,618187	902,505	-0,461765	0,000000	0,000000
1,951987	-964,940943	907,726	-0,483423	0,000000	0,000000
1,847957	-997,954310	912,937	-0,497354	0,000000	0,000000
1,744015	-1025,057390	918,151	-0,508792	0,000000	0,000000
1,639993	-1028,381637	923,361	-0,510195	0,000000	0,000000
1,536004	0,124963	928,572	-0,076165	0,000000	0,000000
1,431970	0,361004	933,788	-0,076065	0,000000	0,000000
1,423973	0,392245	934,190	-0,076052	0,000000	0,000000

X-Pos [um]	Y-Pos [um]
0,000390	8,008793

POC
3,429797
1,531956	0,219842	6,145	-0,076006	0,000000	0,000000
1,635926	0,172403	11,358	-0,076026	0,000000	0,000000
1,739865	0,047440	16,572	-0,076079	0,000000	0,000000
1,843895	0,093722	21,788	-0,076059	0,000000	0,000000
1,947877	0,124963	27,000	-0,076046	0,000000	0,000000
2,051835	0,313564	32,215	-0,075966	0,000000	0,000000
2,155880	0,219842	37,432	-0,076006	0,000000	0,000000
2,259845	0,157361	42,643	-0,076032	0,000000	0,000000
2,363826	0,031241	47,858	-0,076085	0,000000	0,000000
2,467851	0,274224	53,073	-0,075983	0,000000	0,000000
2,571848	0,344805	58,294	-0,075953	0,000000	0,000000
2,675833	0,242984	63,509	-0,075996	0,000000	0,000000
2,779840	0,376046	68,721	-0,075940	0,000000	0,000000
2,883790	0,266125	73,945	-0,075986	0,000000	0,000000
2,987839	0,118021	79,159	-0,076049	0,000000	0,000000
3,091810	-195,707059	84,375	-0,158687	0,000000	0,000000
3,195777	-139,860180	89,586	-0,135120	0,000000	0,000000
3,299740	-80,354663	94,807	-0,110008	0,000000	0,000000
3,403718	-16,138737	100,027	-0,082909	0,000000	0,000000
3,507696	48,211410	105,245	-0,055753	0,000000	0,000000
3,553680	74,609838	110,465	-0,044613	0,000000	0,000000
3,553638	72,242484	115,681	-0,045612	0,000000	0,000000
3,557687	73,199376	120,842	-0,045208	0,000000	0,000000
3,661705	142,517958	126,057	-0,015956	0,000000	0,000000
3,677692	151,209827	131,268	-0,012288	0,000000	0,000000
3,677716	149,846805	136,485	-0,012863	0,000000	0,000000
3,647733	127,892661	141,634	-0,022128	0,000000	0,000000
3,751693	199,084531	146,843	0,007915	0,000000	0,000000
3,801689	231,729950	152,056	0,021691	0,000000	0,000000
3,801638	229,863605	157,276	0,020904	0,000000	0,000000
3,739672	186,614846	162,493	0,002653	0,000000	0,000000
3,781669	216,782990	167,638	0,015384	0,000000	0,000000
3,885669	287,473850	172,851	0,045215	0,000000	0,000000
3,925614	312,123954	178,061	0,055618	0,000000	0,000000
3,925643	310,689194	183,269	0,055012	0,000000	0,000000
3,853659	260,315231	188,481	0,033754	0,000000	0,000000
3,851664	259,327098	193,635	0,033337	0,000000	0,000000
3,955649	329,899937	198,850	0,063119	0,000000	0,000000
4,049621	394,657370	204,065	0,090447	0,000000	0,000000
4,049631	392,416136	209,280	0,089501	0,000000	0,000000
4,031597	379,789090	214,489	0,084172	0,000000	0,000000
3,927642	305,046190	219,711	0,052631	0,000000	0,000000
3,965630	332,863179	224,852	0,064370	0,000000	0,000000
4,069614	406,438602	230,068	0,095418	0,000000	0,000000
4,173590	476,235051	235,294	0,124873	0,000000	0,000000
4,173614	475,051374	240,517	0,124373	0,000000	0,000000
4,165659	469,753175	245,733	0,122137	0,000000	0,000000
4,061666	393,599813	250,949	0,090000	0,000000	0,000000
4,015627	362,161211	256,107	0,076733	0,000000	0,000000
4,119669	435,446210	261,325	0,107660	0,000000	0,000000
4,223634	509,209077	266,537	0,138788	0,000000	0,000000
4,297576	558,792765	271,747	0,159712	0,000000	0,000000
4,297608	557,476026	276,966	0,159156	0,000000	0,000000
4,259580	529,706476	282,179	0,147437	0,000000	0,000000
4,155636	456,326598	287,403	0,116471	0,000000	0,000000
4,109641	423,093389	292,556	0,102447	0,000000	0,000000
4,213589	497,656944	297,773	0,133913	0,000000	0,000000
4,317624	570,086872	302,987	0,164478	0,000000	0,000000
4,421576	643,537332	308,196	0,195474	0,000000	0,000000
4,421599	641,452301	313,412	0,194594	0,000000	0,000000
4,413557	634,413877	318,623	0,191624	0,000000	0,000000
4,309594	559,567998	323,847	0,160039	0,000000	0,000000
4,205625	486,291099	329,068	0,129116	0,000000	0,000000
4,243622	515,746492	334,236	0,141546	0,000000	0,000000
4,347577	587,832772	339,456	0,171967	0,000000	0,000000
4,451544	660,812306	344,670	0,202764	0,000000	0,000000
4,545508	726,932761	349,889	0,230667	0,000000	0,000000
4,545513	725,256174	355,115	0,229959	0,000000	0,000000
4,527529	710,935186	360,328	0,223916	0,000000	0,000000
4,423561	635,495733	365,543	0,192081	0,000000	0,000000
4,319605	562,821664	370,756	0,161412	0,000000	0,000000
4,317631	563,378212	375,905	0,161647	0,000000	0,000000
4,421556	638,152353	381,126	0,193202	0,000000	0,000000
4,525547	709,908870	386,341	0,223483	0,000000	0,000000
4,629489	784,157703	391,558	0,254816	0,000000	0,000000
4,669468	810,055123	396,775	0,265745	0,000000	0,000000
4,669535	808,848304	401,989	0,265235	0,000000	0,000000
4,597496	756,278232	407,201	0,243051	0,000000	0,000000
4,493563	680,853821	412,422	0,211222	0,000000	0,000000
4,389583	607,490142	417,643	0,180262	0,000000	0,000000
4,431569	640,652770	422,829	0,194257	0,000000	0,000000
4,535527	714,548699	428,046	0,225441	0,000000	0,000000
4,639497	787,559473	433,266	0,256251	0,000000	0,000000
4,743466	860,437185	438,480	0,287006	0,000000	0,000000
4,793462	894,908453	443,695	0,301553	0,000000	0,000000
4,793468	894,007100	448,906	0,301172	0,000000	0,000000
4,731433	848,445368	454,119	0,281945	0,000000	0,000000
4,627452	772,134645	459,339	0,249742	0,000000	0,000000
4,523503	698,332439	464,552	0,218598	0,000000	0,000000
4,485550	672,357496	469,696	0,207636	0,000000	0,000000
4,589495	748,126712	474,911	0,239611	0,000000	0,000000
4,693476	822,195044	480,131	0,270868	0,000000	0,000000
4,797431	895,974110	485,344	0,302002	0,000000	0,000000
4,901393	970,670727	490,552	0,333524	0,000000	0,000000
4,917418	980,318332	495,766	0,337596	0,000000	0,000000
4,917405	979,057131	500,988	0,337063	0,000000	0,000000
4,821471	908,875380	506,203	0,307447	0,000000	0,000000
4,717490	834,689027	511,424	0,276140	0,000000	0,000000
4,613559	760,776899	516,639	0,244949	0,000000	0,000000
4,579530	736,635904	521,791	0,234762	0,000000	0,000000
4,683493	812,954726	527,008	0,266968	0,000000	0,000000
4,787432	886,671310	532,228	0,298077	0,000000	0,000000
4,891475	961,312389	537,444	0,329575	0,000000	0,000000
4,995452	1034,745492	542,658	0,360564	0,000000	0,000000
5,041481	1066,427077	547,871	0,373934	0,000000	0,000000
5,041383	1065,282740	553,087	0,373451	0,000000	0,000000
4,975435	1017,274974	558,305	0,353191	0,000000	0,000000
4,871445	941,653862	563,515	0,321279	0,000000	0,000000
4,767483	867,303206	568,732	0,289903	0,000000	0,000000
4,663520	792,890070	573,944	0,258501	0,000000	0,000000
4,717535	833,827014	579,090	0,275776	0,000000	0,000000
4,821488	907,512357	584,302	0,306872	0,000000	0,000000
4,925398	983,563898	589,526	0,338965	0,000000	0,000000
5,029405	1056,402270	594,739	0,369703	0,000000	0,000000
5,133384	1130,439361	599,961	0,400947	0,000000	0,000000
5,165384	1152,660786	605,185	0,410324	0,000000	0,000000
5,165369	1151,445868	610,399	0,409812	0,000000	0,000000
5,085383	1092,520040	615,607	0,384945	0,000000	0,000000
4,981412	1017,416136	620,825	0,353251	0,000000	0,000000
4,877475	942,587613	626,041	0,321673	0,000000	0,000000
4,773552	868,110838	631,250	0,290244	0,000000	0,000000
4,791509	882,274465	636,404	0,296221	0,000000	0,000000
4,895484	958,513450	641,619	0,328394	0,000000	0,000000
4,999403	1032,143254	646,828	0,359466	0,000000	0,000000
5,103411	1108,297773	652,040	0,391603	0,000000	0,000000
5,207336	1181,707735	657,252	0,422582	0,000000	0,000000
5,289307	1240,257516	662,469	0,447290	0,000000	0,000000
5,289321	1238,862096	667,683	0,446701	0,000000	0,000000
5,259313	1216,947293	672,898	0,437453	0,000000	0,000000
[...]
3,687211	154,038850	131,284	-0,010958	0,000000	0,000000
3,687226	152,565906	136,498	-0,011580	0,000000	0,000000
3,657217	131,841723	141,640	-0,020326	0,000000	0,000000
3,761220	203,089131	146,854	0,009741	0,000000	0,000000
3,811190	234,394670	152,070	0,022952	0,000000	0,000000
3,811195	232,764366	157,283	0,022264	0,000000	0,000000
3,749126	189,560732	162,494	0,004032	0,000000	0,000000
3,791213	217,934269	167,649	0,016005	0,000000	0,000000
3,895199	288,820674	172,870	0,045919	0,000000	0,000000
3,935190	314,882396	178,083	0,056917	0,000000	0,000000
3,935228	313,385154	183,298	0,056286	0,000000	0,000000
3,863247	263,057474	188,517	0,035047	0,000000	0,000000
3,861186	262,407203	193,675	0,034773	0,000000	0,000000
3,965144	333,607172	198,886	0,064819	0,000000	0,000000
4,059159	397,934177	204,102	0,091965	0,000000	0,000000
4,059142	395,653603	209,323	0,091003	0,000000	0,000000
4,041159	382,100905	214,536	0,085284	0,000000	0,000000
3,937147	307,961993	219,751	0,053997	0,000000	0,000000
3,975140	335,544098	224,911	0,065637	0,000000	0,000000
4,079122	409,423828	230,124	0,096814	0,000000	0,000000
4,183118	479,354497	235,351	0,126325	0,000000	0,000000
4,183115	478,241401	240,560	0,125855	0,000000	0,000000
4,175077	473,045024	245,770	0,123662	0,000000	0,000000
4,071170	397,024724	250,989	0,091582	0,000000	0,000000
4,025115	365,037674	256,142	0,078083	0,000000	0,000000
4,129091	439,278408	261,358	0,109413	0,000000	0,000000
4,233066	511,701394	266,570	0,139975	0,000000	0,000000
4,307068	562,335697	271,790	0,161343	0,000000	0,000000
4,307063	560,759775	277,005	0,160678	0,000000	0,000000
4,269120	533,578014	282,229	0,149207	0,000000	0,000000
4,165130	458,349147	287,453	0,117460	0,000000	0,000000
4,119132	426,792524	292,605	0,104144	0,000000	0,000000
4,223152	502,037591	297,821	0,135897	0,000000	0,000000
4,327088	573,621705	303,035	0,166105	0,000000	0,000000
4,431085	647,071007	308,248	0,197101	0,000000	0,000000
4,431031	644,736050	313,464	0,196116	0,000000	0,000000
4,423113	639,280491	318,676	0,193813	0,000000	0,000000
4,319051	564,130304	323,893	0,162100	0,000000	0,000000
4,215099	489,700968	329,113	0,130691	0,000000	0,000000
4,253077	518,732875	334,259	0,142942	0,000000	0,000000
4,357044	592,903029	339,479	0,174242	0,000000	0,000000
4,461121	664,550781	344,688	0,204478	0,000000	0,000000
4,555036	730,577514	349,902	0,232341	0,000000	0,000000
4,555039	728,571164	355,113	0,231494	0,000000	0,000000
4,537025	715,983459	360,325	0,226182	0,000000	0,000000
4,433080	640,111263	365,542	0,194164	0,000000	0,000000
4,329080	566,834364	370,754	0,163241	0,000000	0,000000
4,327111	565,737467	375,907	0,162778	0,000000	0,000000
4,431085	641,577264	381,120	0,194783	0,000000	0,000000
4,535130	714,509358	386,338	0,225560	0,000000	0,000000
4,639043	786,391995	391,553	0,255895	0,000000	0,000000
4,679040	813,322673	396,763	0,267259	0,000000	0,000000
4,679082	812,437519	401,980	0,266886	0,000000	0,000000
4,607019	760,714418	407,194	0,245059	0,000000	0,000000
4,503070	686,229543	412,405	0,213626	0,000000	0,000000
4,399104	612,215594	417,620	0,182392	0,000000	0,000000
4,441090	643,176327	422,774	0,195458	0,000000	0,000000
4,545034	718,585697	427,993	0,227280	0,000000	0,000000
4,649106	790,286674	433,208	0,257538	0,000000	0,000000
4,753038	864,300624	438,430	0,288772	0,000000	0,000000
4,802994	899,132896	443,649	0,303471	0,000000	0,000000
4,803017	897,776816	448,859	0,302899	0,000000	0,000000
4,740995	851,486134	454,073	0,283364	0,000000	0,000000
4,637035	777,111180	459,293	0,251978	0,000000	0,000000
4,533121	703,356413	464,509	0,220854	0,000000	0,000000
4,495091	676,839964	469,656	0,209664	0,000000	0,000000
4,599087	752,163711	474,874	0,241450	0,000000	0,000000
4,702981	826,475026	480,092	0,272810	0,000000	0,000000
4,806987	900,261034	485,310	0,303947	0,000000	0,000000
4,910986	973,954476	490,520	0,335046	0,000000	0,000000
4,926960	984,033666	495,739	0,339299	0,000000	0,000000
4,926935	983,101072	500,958	0,338906	0,000000	0,000000
4,830984	913,703810	506,169	0,309620	0,000000	0,000000
4,727094	838,616104	511,385	0,277933	0,000000	0,000000
4,623064	764,680835	516,606	0,246732	0,000000	0,000000
4,589044	740,687944	521,755	0,236607	0,000000	0,000000
4,693005	817,445294	526,974	0,268999	0,000000	0,000000
4,797016	891,521725	532,190	0,300259	0,000000	0,000000
4,900952	965,559973	537,408	0,331503	0,000000	0,000000
5,004964	1040,012450	542,621	0,362922	0,000000	0,000000
5,050973	1070,948886	547,836	0,375978	0,000000	0,000000
5,050922	1069,585863	553,049	0,375402	0,000000	0,000000
4,984936	1021,358255	558,266	0,355050	0,000000	0,000000
4,880942	946,035665	563,483	0,323264	0,000000	0,000000
4,777034	870,931761	568,696	0,291570	0,000000	0,000000
4,673036	797,748584	573,911	0,260687	0,000000	0,000000
4,727021	836,649095	579,056	0,277103	0,000000	0,000000
4,830970	911,822423	584,266	0,308826	0,000000	0,000000
4,935011	987,803382	589,489	0,340890	0,000000	0,000000
5,038930	1060,539933	594,703	0,371585	0,000000	0,000000
5,142888	1134,789923	599,921	0,402918	0,000000	0,000000
5,174859	1156,908370	605,131	0,412252	0,000000	0,000000
5,174872	1155,841556	610,343	0,411802	0,000000	0,000000
5,094896	1097,575255	615,557	0,387214	0,000000	0,000000
4,990974	1021,233292	620,765	0,354998	0,000000	0,000000
4,886929	946,631554	625,983	0,323516	0,000000	0,000000
4,783013	872,906870	631,196	0,292404	0,000000	0,000000
4,801044	886,771975	636,353	0,298255	0,000000	0,000000
4,905007	963,223860	641,563	0,330518	0,000000	0,000000
5,008947	1038,249084	646,775	0,362178	0,000000	0,000000
5,112924	1111,228617	651,991	0,392976	0,000000	0,000000
5,216898	1185,657953	657,207	0,424385	0,000000	0,000000
5,298863	1244,654362	662,426	0,449281	0,000000	0,000000
5,298807	1242,843556	667,644	0,448517	0,000000	0,000000
5,268890	1220,928753	672,863	0,439269	0,000000	0,000000
5,164870	1142,902103	678,079	0,406342	0,000000	0,000000
5,060956	1067,986800	683,287	0,374728	0,000000	0,000000
4,956944	993,784249	688,501	0,343414	0,000000	0,000000
4,853029	918,335539	693,713	0,311575	0,000000	0,000000
4,918988	967,526983	698,866	0,332333	0,000000	0,000000
5,022943	1043,547282	704,083	0,364414	0,000000	0,000000
5,126885	1120,053549	709,302	0,396700	0,000000	0,000000
5,230863	1194,961909	714,516	0,428311	0,000000	0,000000
5,334858	1268,740975	719,732	0,459446	0,000000	0,000000
5,422770	1332,219852	724,948	0,486234	0,000000	0,000000
5,422793	1330,472684	730,166	0,485497	0,000000	0,000000
5,398799	1313,002166	735,384	0,478124	0,000000	0,000000
5,294845	1235,350405	740,598	0,445355	0,000000	0,000000
5,190910	1159,627471	745,817	0,413400	0,000000	0,000000
5,086949	1084,470342	751,038	0,381684	0,000000	0,000000
4,983013	1008,942952	756,254	0,349811	0,000000	0,000000
4,879067	935,751675	761,469	0,318924	0,000000	0,000000
4,775042	861,847647	766,690	0,287737	0,000000	0,000000
4,671070	788,131063	771,903	0,256628	0,000000	0,000000
4,567088	714,054632	777,113	0,225368	0,000000	0,000000
4,463089	639,319831	782,326	0,193830	0,000000	0,000000
4,359152	566,668904	787,551	0,163171	0,000000	0,000000
4,255190	492,906037	792,767	0,132043	0,000000	0,000000
4,151190	419,629138	797,986	0,101121	0,000000	0,000000
4,047220	346,273558	803,196	0,070165	0,000000	0,000000
3,943218	272,448210	808,411	0,039010	0,000000	0,000000
3,839247	198,904028	813,628	0,007975	0,000000	0,000000
3,735222	126,347980	818,853	-0,022644	0,000000	0,000000
3,631238	52,757516	824,074	-0,053699	0,000000	0,000000
3,527289	-16,342380	829,289	-0,082859	0,000000	0,000000
3,423270	-87,604830	834,507	-0,112932	0,000000	0,000000
3,319285	-157,425578	839,719	-0,142396	0,000000	0,000000
3,215324	-228,155778	844,931	-0,172245	0,000000	0,000000
3,111315	-295,586030	850,145	-0,200700	0,000000	0,000000
3,007379	-365,124454	855,362	-0,230045	0,000000	0,000000
2,903404	-434,490475	860,575	-0,259318	0,000000	0,000000
2,799396	-498,323413	865,790	-0,286255	0,000000	0,000000
2,695391	-564,796773	871,006	-0,314307	0,000000	0,000000
2,591420	-625,932594	876,219	-0,340106	0,000000	0,000000
2,487402	-688,378212	881,433	-0,366458	0,000000	0,000000
2,383383	-753,417969	886,645	-0,393905	0,000000	0,000000
2,279356	-810,094463	891,858	-0,417823	0,000000	0,000000
2,175417	-864,889570	897,081	-0,440946	0,000000	0,000000
2,071379	-916,658953	902,303	-0,462793	0,000000	0,000000
1,967418	-969,306548	907,524	-0,485010	0,000000	0,000000
1,863430	-1005,737883	912,745	-0,500384	0,000000	0,000000
1,759435	-1032,128212	917,957	-0,511521	0,000000	0,000000
1,655447	-1038,367104	923,174	-0,514154	0,000000	0,000000
1,551460	-945,447877	928,392	-0,474942	0,000000	0,000000
1,447424	-0,227942	933,605	-0,076059	0,000000	0,000000
1,439464	-0,211743	934,005	-0,076052	0,000000	0,000000