File: Nanoindentation Datenauswertung/data/PDMS_10-1/30.09/APM-PDMS10-1-100ms,4um,40nms,2um offset,16cycles(5x1)
Quasi static measurement routine
Tip parameters (shape,radius, material...)
04.10.2022

Piezo position[nm]	MEMS displ.[nm]	Time[ms]	Cap [pf]	Temp [°C]	Rh [%]
eoh

X-Pos [um]	Y-Pos [um]
0,000799	0,000608

POC
3,333926
1,454087	0,251083	4,042	-0,075361	0,000000	0,000000
1,578072	-0,008099	7,153	-0,075470	0,000000	0,000000
1,702053	0,282324	10,265	-0,075348	0,000000	0,000000
1,826079	-0,070581	13,379	-0,075497	0,000000	0,000000
1,950067	0,219842	16,490	-0,075374	0,000000	0,000000
2,074033	0,219842	19,604	-0,075374	0,000000	0,000000
2,198071	-0,086780	22,714	-0,075503	0,000000	0,000000
2,322038	-0,070581	25,822	-0,075497	0,000000	0,000000
2,446038	0,093722	28,928	-0,075427	0,000000	0,000000
2,570021	-0,078680	32,039	-0,075500	0,000000	0,000000
2,694042	-0,086780	35,150	-0,075503	0,000000	0,000000
2,818011	-0,054382	38,268	-0,075490	0,000000	0,000000
2,942014	-0,008099	41,378	-0,075470	0,000000	0,000000
3,066012	-157,637320	44,489	-0,141990	0,000000	0,000000
3,189965	-82,431594	47,598	-0,110253	0,000000	0,000000
3,313937	-6,787341	50,710	-0,078331	0,000000	0,000000
3,437921	67,578356	53,820	-0,046949	0,000000	0,000000
3,457912	77,783666	56,931	-0,042642	0,000000	0,000000
3,457925	75,895337	60,036	-0,043439	0,000000	0,000000
3,457864	74,860921	63,147	-0,043875	0,000000	0,000000
3,465886	77,611263	66,189	-0,042715	0,000000	0,000000
3,581851	158,593056	69,300	-0,008541	0,000000	0,000000
3,581862	154,854580	72,408	-0,010118	0,000000	0,000000
3,581857	153,145596	75,519	-0,010839	0,000000	0,000000
3,581854	152,511524	78,629	-0,011107	0,000000	0,000000
3,553863	133,253342	81,667	-0,019234	0,000000	0,000000
3,677910	217,339538	84,778	0,016250	0,000000	0,000000
3,705869	234,590214	87,889	0,023530	0,000000	0,000000
3,705866	232,944868	90,994	0,022836	0,000000	0,000000
3,705857	231,878055	94,101	0,022386	0,000000	0,000000
3,637778	185,618613	97,215	0,002864	0,000000	0,000000
3,709868	235,828273	100,259	0,024053	0,000000	0,000000
3,829865	317,923162	103,371	0,058697	0,000000	0,000000
3,829824	314,624371	106,484	0,057305	0,000000	0,000000
3,829839	313,596897	109,595	0,056871	0,000000	0,000000
3,829837	312,405121	112,707	0,056368	0,000000	0,000000
3,729851	240,814064	115,816	0,026157	0,000000	0,000000
3,801830	294,261191	118,867	0,048711	0,000000	0,000000
3,925839	377,343056	121,981	0,083772	0,000000	0,000000
3,953829	397,047865	125,092	0,092087	0,000000	0,000000
3,953857	394,939694	128,203	0,091198	0,000000	0,000000
3,953785	394,046440	131,315	0,090821	0,000000	0,000000
3,885843	345,411545	134,426	0,070297	0,000000	0,000000
3,829872	304,497741	137,467	0,053031	0,000000	0,000000
3,953806	392,345555	140,578	0,090103	0,000000	0,000000
4,077799	478,077098	143,687	0,126282	0,000000	0,000000
4,077818	477,215084	146,797	0,125918	0,000000	0,000000
4,077792	476,791599	149,911	0,125739	0,000000	0,000000
4,077787	475,607922	153,022	0,125240	0,000000	0,000000
3,981843	408,844139	156,133	0,097065	0,000000	0,000000
3,917848	360,609588	159,175	0,076710	0,000000	0,000000
4,041846	449,084531	162,286	0,114047	0,000000	0,000000
4,165794	538,876213	165,396	0,151939	0,000000	0,000000
4,201804	561,363763	168,503	0,161429	0,000000	0,000000
4,201802	560,556132	171,614	0,161088	0,000000	0,000000
4,201801	559,200052	174,722	0,160516	0,000000	0,000000
4,141838	513,943785	177,833	0,141417	0,000000	0,000000
4,017821	428,870612	180,944	0,105517	0,000000	0,000000
4,073851	466,445127	183,997	0,121373	0,000000	0,000000
4,197826	554,450302	187,108	0,158511	0,000000	0,000000
4,321827	643,865938	190,210	0,196245	0,000000	0,000000
4,325779	643,913378	193,319	0,196265	0,000000	0,000000
4,325836	642,698460	196,450	0,195752	0,000000	0,000000
4,325828	641,232459	199,559	0,195133	0,000000	0,000000
4,233754	576,992234	202,665	0,168024	0,000000	0,000000
4,109832	489,167561	205,774	0,130962	0,000000	0,000000
4,165808	530,082522	208,854	0,148228	0,000000	0,000000
4,289799	616,370612	211,959	0,184642	0,000000	0,000000
4,413709	702,924828	215,064	0,221167	0,000000	0,000000
4,449713	728,390662	218,176	0,231914	0,000000	0,000000
4,449744	726,602997	221,286	0,231160	0,000000	0,000000
4,449740	725,960826	224,400	0,230889	0,000000	0,000000
4,389752	681,911378	227,511	0,212300	0,000000	0,000000
4,265812	591,673069	230,622	0,174219	0,000000	0,000000
4,193805	543,023132	233,660	0,153689	0,000000	0,000000
4,317767	634,029732	236,770	0,192094	0,000000	0,000000
4,441753	722,370455	239,876	0,229374	0,000000	0,000000
4,565769	808,149437	242,990	0,265572	0,000000	0,000000
4,573763	812,406278	246,098	0,267369	0,000000	0,000000
4,573716	811,135821	249,205	0,266833	0,000000	0,000000
4,573746	810,086363	252,316	0,266390	0,000000	0,000000
4,485806	744,363938	255,425	0,238655	0,000000	0,000000
4,361788	658,734218	258,535	0,202519	0,000000	0,000000
4,281844	600,357996	261,586	0,177884	0,000000	0,000000
4,405809	692,438352	264,695	0,216742	0,000000	0,000000
4,529737	780,959577	267,810	0,254098	0,000000	0,000000
4,653769	867,976618	270,917	0,290819	0,000000	0,000000
4,697684	897,118446	274,031	0,303117	0,000000	0,000000
4,697727	896,131470	277,147	0,302701	0,000000	0,000000
4,697658	895,512441	280,256	0,302439	0,000000	0,000000
4,645678	855,530074	283,367	0,285567	0,000000	0,000000
4,521702	768,983958	286,474	0,249044	0,000000	0,000000
4,397765	677,130387	289,585	0,210282	0,000000	0,000000
4,437789	709,242400	292,622	0,223833	0,000000	0,000000
4,561786	797,090214	295,728	0,260905	0,000000	0,000000
4,685739	885,361513	298,837	0,298156	0,000000	0,000000
4,809681	974,095638	301,944	0,335602	0,000000	0,000000
4,821633	982,843047	305,049	0,339293	0,000000	0,000000
4,821693	981,510108	308,156	0,338730	0,000000	0,000000
4,821715	980,546273	311,264	0,338324	0,000000	0,000000
4,737742	920,930835	314,374	0,313166	0,000000	0,000000
4,613737	827,650604	317,486	0,273802	0,000000	0,000000
4,489737	742,193285	320,600	0,237739	0,000000	0,000000
4,529751	771,640579	323,645	0,250166	0,000000	0,000000
4,653695	859,096147	326,754	0,287072	0,000000	0,000000
4,777727	951,184603	329,868	0,325933	0,000000	0,000000
4,901657	1040,059890	332,972	0,363438	0,000000	0,000000
4,945542	1068,880054	336,082	0,375601	0,000000	0,000000
4,945609	1067,751916	339,192	0,375125	0,000000	0,000000
4,945671	1066,458318	342,297	0,374579	0,000000	0,000000
4,893697	1030,184344	345,400	0,359271	0,000000	0,000000
4,769756	936,285082	348,506	0,319646	0,000000	0,000000
4,645822	849,596647	351,617	0,283063	0,000000	0,000000
4,557771	782,409379	354,657	0,254710	0,000000	0,000000
4,681752	877,822080	357,764	0,294974	0,000000	0,000000
4,805722	964,964085	360,872	0,331748	0,000000	0,000000
4,929666	1054,176077	363,986	0,369396	0,000000	0,000000
5,053626	1145,346981	367,094	0,407870	0,000000	0,000000
5,069609	1155,136904	370,200	0,412001	0,000000	0,000000
5,069588	1153,404778	373,308	0,411270	0,000000	0,000000
5,069609	1152,652686	376,420	0,410953	0,000000	0,000000
4,989612	1092,190277	379,530	0,385437	0,000000	0,000000
4,865644	1004,208244	382,638	0,348309	0,000000	0,000000
4,741626	914,629462	385,743	0,310507	0,000000	0,000000
4,645745	844,541432	388,786	0,280930	0,000000	0,000000
4,769726	937,452560	391,897	0,320138	0,000000	0,000000
4,893623	1024,470759	395,002	0,356860	0,000000	0,000000
5,017654	1114,096981	398,109	0,394682	0,000000	0,000000
5,141631	1203,308973	401,217	0,432330	0,000000	0,000000
5,193556	1241,973443	404,324	0,448646	0,000000	0,000000
5,193589	1240,367437	407,437	0,447968	0,000000	0,000000
5,193500	1239,724110	410,547	0,447697	0,000000	0,000000
5,149601	1208,725193	413,654	0,434615	0,000000	0,000000
5,025629	1116,283833	416,768	0,395605	0,000000	0,000000
4,901674	1026,703893	419,877	0,357802	0,000000	0,000000
4,777774	937,115855	422,992	0,319996	0,000000	0,000000
4,801723	954,523891	426,028	0,327342	0,000000	0,000000
4,925714	1044,057548	429,135	0,365125	0,000000	0,000000
5,049630	1135,307131	432,245	0,403633	0,000000	0,000000
5,173568	1227,003342	435,350	0,442329	0,000000	0,000000
5,297499	1316,120455	438,460	0,479936	0,000000	0,000000
5,317527	1328,645679	441,568	0,485222	0,000000	0,000000
5,317533	1327,619363	444,673	0,484789	0,000000	0,000000
5,317526	1326,286424	447,785	0,484226	0,000000	0,000000
5,241592	1270,606163	450,896	0,460729	0,000000	0,000000
5,117644	1180,304215	454,004	0,422622	0,000000	0,000000
4,993682	1089,901603	457,112	0,384472	0,000000	0,000000
4,869640	1000,485967	460,225	0,346738	0,000000	0,000000
4,745706	911,273974	463,334	0,309091	0,000000	0,000000
4,621755	822,360504	466,447	0,271569	0,000000	0,000000
4,497764	730,804299	469,556	0,232933	0,000000	0,000000
4,373802	644,125120	472,663	0,196354	0,000000	0,000000
4,249857	556,448552	475,772	0,159354	0,000000	0,000000
4,125846	469,047366	478,883	0,122471	0,000000	0,000000
4,001879	378,166886	481,991	0,084120	0,000000	0,000000
3,877872	292,184260	485,098	0,047835	0,000000	0,000000
3,753882	205,761950	488,205	0,011365	0,000000	0,000000
3,629918	117,797273	491,315	-0,025756	0,000000	0,000000
3,505935	31,688527	494,428	-0,062094	0,000000	0,000000
3,381976	-57,044441	497,537	-0,099540	0,000000	0,000000
3,258038	-136,255924	500,650	-0,132967	0,000000	0,000000
3,133997	-223,672153	503,761	-0,169856	0,000000	0,000000
3,010025	-307,953893	506,870	-0,205423	0,000000	0,000000
2,886063	-391,554123	509,977	-0,240703	0,000000	0,000000
2,762019	-464,940943	513,083	-0,271672	0,000000	0,000000
2,638052	-544,794598	516,194	-0,305370	0,000000	0,000000
2,514020	-622,696284	519,304	-0,338245	0,000000	0,000000
2,390038	-698,654102	522,412	-0,370299	0,000000	0,000000
2,266062	-771,084031	525,520	-0,400864	0,000000	0,000000
2,142047	-841,359505	528,627	-0,430521	0,000000	0,000000
2,018047	-907,151353	531,731	-0,458285	0,000000	0,000000
1,894099	-971,971268	534,842	-0,485639	0,000000	0,000000
1,770105	-1024,917386	537,946	-0,507982	0,000000	0,000000
1,646062	-1061,238800	541,056	-0,523310	0,000000	0,000000
1,522134	-1059,083188	544,164	-0,522400	0,000000	0,000000
1,398089	-0,149261	547,270	-0,075530	0,000000	0,000000
1,334132	0,321664	548,875	-0,075331	0,000000	0,000000

X-Pos [um]	Y-Pos [um]
0,000745	8,006970

POC
3,322063
1,442220	-0,101822	4,042	-0,075265	0,000000	0,000000
1,566208	0,078680	7,152	-0,075189	0,000000	0,000000
1,690220	-0,101822	10,263	-0,075265	0,000000	0,000000
1,814195	0,118021	13,372	-0,075172	0,000000	0,000000
1,938182	0,164303	16,481	-0,075153	0,000000	0,000000
2,062157	-0,101822	19,596	-0,075265	0,000000	0,000000
2,186189	-0,101822	22,704	-0,075265	0,000000	0,000000
2,310197	0,133062	25,811	-0,075166	0,000000	0,000000
2,434142	0,118021	28,918	-0,075172	0,000000	0,000000
2,558191	0,031241	32,028	-0,075209	0,000000	0,000000
2,682112	0,101822	35,140	-0,075179	0,000000	0,000000
2,806184	-0,023141	38,250	-0,075232	0,000000	0,000000
2,930149	0,149261	41,362	-0,075159	0,000000	0,000000
3,054141	-156,015116	44,472	-0,141061	0,000000	0,000000
3,178099	-84,281741	47,579	-0,110789	0,000000	0,000000
3,302093	-11,599572	50,691	-0,080117	0,000000	0,000000
3,426061	65,924911	53,800	-0,047402	0,000000	0,000000
3,446020	76,373204	56,907	-0,042993	0,000000	0,000000
3,446028	74,265033	60,015	-0,043882	0,000000	0,000000
3,446043	72,454227	63,126	-0,044646	0,000000	0,000000
3,454065	75,354987	66,165	-0,043422	0,000000	0,000000
3,570045	156,611004	69,275	-0,009132	0,000000	0,000000
3,570034	152,958151	72,388	-0,010674	0,000000	0,000000
3,569941	151,649511	75,499	-0,011226	0,000000	0,000000
3,570004	150,685676	78,607	-0,011633	0,000000	0,000000
3,541976	129,562306	81,645	-0,020547	0,000000	0,000000
3,666056	217,198376	84,752	0,016436	0,000000	0,000000
3,694010	232,928669	87,865	0,023074	0,000000	0,000000
3,693992	231,463826	90,978	0,022456	0,000000	0,000000
3,693946	230,232709	94,086	0,021936	0,000000	0,000000
3,625999	184,075089	97,194	0,002458	0,000000	0,000000
3,698014	232,239059	100,235	0,022783	0,000000	0,000000
3,817998	316,066073	103,347	0,058158	0,000000	0,000000
3,818038	312,821664	106,453	0,056789	0,000000	0,000000
3,818007	311,449385	109,560	0,056209	0,000000	0,000000
3,817998	310,948376	112,669	0,055998	0,000000	0,000000
3,718022	242,005841	115,783	0,026904	0,000000	0,000000
3,789977	289,949969	118,835	0,047137	0,000000	0,000000
3,913986	375,705809	121,947	0,083326	0,000000	0,000000
3,941950	395,002175	125,052	0,091469	0,000000	0,000000
3,941952	393,537332	128,162	0,090851	0,000000	0,000000
3,941933	392,361754	131,270	0,090354	0,000000	0,000000
3,873955	345,843130	134,379	0,070724	0,000000	0,000000
3,817995	303,164803	137,431	0,052713	0,000000	0,000000
3,941972	391,232459	140,540	0,089878	0,000000	0,000000
4,065918	477,042682	143,652	0,126090	0,000000	0,000000
4,065937	476,988300	146,762	0,126067	0,000000	0,000000
4,065991	475,742141	149,869	0,125541	0,000000	0,000000
4,065944	474,980793	152,981	0,125220	0,000000	0,000000
3,969964	408,170727	156,088	0,097026	0,000000	0,000000
3,905967	358,798782	159,127	0,076191	0,000000	0,000000
4,029975	448,998908	162,236	0,114255	0,000000	0,000000
4,153940	537,591871	165,345	0,151642	0,000000	0,000000
4,189925	560,273808	168,453	0,161213	0,000000	0,000000
4,189935	558,612263	171,560	0,160512	0,000000	0,000000
4,189977	557,742150	174,665	0,160145	0,000000	0,000000
4,129899	515,958235	177,774	0,142512	0,000000	0,000000
4,005970	428,047939	180,886	0,105414	0,000000	0,000000
4,062000	468,421394	183,938	0,122452	0,000000	0,000000
4,185975	556,919478	187,052	0,159798	0,000000	0,000000
4,309962	640,848313	190,168	0,195216	0,000000	0,000000
4,313945	643,130045	193,283	0,196179	0,000000	0,000000
4,313910	641,797106	196,392	0,195616	0,000000	0,000000
4,313905	641,396762	199,500	0,195447	0,000000	0,000000
4,221937	575,691693	202,612	0,167720	0,000000	0,000000
4,097889	488,658453	205,724	0,130992	0,000000	0,000000
4,153961	526,109162	208,769	0,146796	0,000000	0,000000
4,277953	617,531148	211,881	0,185376	0,000000	0,000000
4,401904	702,126453	214,987	0,221075	0,000000	0,000000
4,437886	727,709151	218,096	0,231871	0,000000	0,000000
4,437918	726,454893	221,203	0,231342	0,000000	0,000000
4,437869	725,545440	224,313	0,230958	0,000000	0,000000
4,377923	683,769624	227,424	0,213329	0,000000	0,000000
4,253939	594,455809	230,535	0,175638	0,000000	0,000000
4,181994	539,550781	233,582	0,152468	0,000000	0,000000
4,305937	633,080939	236,691	0,191938	0,000000	0,000000
4,429872	718,491975	239,798	0,227981	0,000000	0,000000
4,553806	807,249241	242,907	0,265437	0,000000	0,000000
4,561828	811,731709	246,014	0,267329	0,000000	0,000000
4,561832	810,572330	249,125	0,266839	0,000000	0,000000
4,561771	809,897762	252,234	0,266555	0,000000	0,000000
4,473863	744,568739	255,345	0,238986	0,000000	0,000000
4,349865	658,758516	258,456	0,202774	0,000000	0,000000
4,269917	597,755758	261,505	0,177031	0,000000	0,000000
4,393983	689,146503	264,612	0,215598	0,000000	0,000000
4,517807	781,234958	267,720	0,254459	0,000000	0,000000
4,641763	866,080189	270,829	0,290264	0,000000	0,000000
4,685808	898,059140	273,940	0,303759	0,000000	0,000000
4,685836	896,476276	277,046	0,303091	0,000000	0,000000
4,685807	895,606163	280,157	0,302724	0,000000	0,000000
4,633807	857,467001	283,265	0,286629	0,000000	0,000000
4,509873	767,964585	286,382	0,248859	0,000000	0,000000
4,385891	680,704560	289,489	0,212035	0,000000	0,000000
4,425827	710,284916	292,542	0,224518	0,000000	0,000000
4,549812	796,581106	295,648	0,260935	0,000000	0,000000
4,673810	887,925568	298,753	0,299482	0,000000	0,000000
4,797778	976,995242	301,868	0,337070	0,000000	0,000000
4,809753	982,239059	304,981	0,339283	0,000000	0,000000
4,809754	981,079680	308,092	0,338793	0,000000	0,000000
4,809866	980,749917	311,202	0,338654	0,000000	0,000000
4,725807	917,701468	314,308	0,312048	0,000000	0,000000
4,601859	828,763700	317,417	0,274516	0,000000	0,000000
4,477892	741,112587	320,524	0,237527	0,000000	0,000000
4,517843	771,538757	323,590	0,250367	0,000000	0,000000
4,641793	859,425911	326,704	0,287456	0,000000	0,000000
4,765772	951,248241	329,811	0,326205	0,000000	0,000000
4,889761	1038,531407	332,917	0,363038	0,000000	0,000000
4,933781	1069,006174	336,022	0,375898	0,000000	0,000000
4,933755	1067,594555	339,132	0,375303	0,000000	0,000000
4,933752	1066,520799	342,243	0,374850	0,000000	0,000000
4,881816	1030,003841	345,354	0,359439	0,000000	0,000000
4,757818	938,613096	348,464	0,320873	0,000000	0,000000
4,633902	846,933085	351,576	0,282184	0,000000	0,000000
4,545888	783,178827	354,628	0,255279	0,000000	0,000000
4,669845	875,940693	357,739	0,294425	0,000000	0,000000
4,793799	967,449459	360,850	0,333042	0,000000	0,000000
4,917740	1055,415294	363,956	0,370163	0,000000	0,000000
5,041771	1146,484375	367,064	0,408594	0,000000	0,000000
5,057766	1155,028140	370,171	0,412200	0,000000	0,000000
5,057733	1153,938185	373,277	0,411740	0,000000	0,000000
5,057663	1152,840131	376,384	0,411276	0,000000	0,000000
4,977747	1092,597564	379,494	0,385854	0,000000	0,000000
4,853760	1001,866345	382,600	0,347565	0,000000	0,000000
4,729803	915,217250	385,707	0,311000	0,000000	0,000000
4,633850	841,751749	388,748	0,279997	0,000000	0,000000
4,757808	934,772799	391,858	0,319252	0,000000	0,000000
4,881741	1028,107413	394,966	0,358639	0,000000	0,000000
5,005728	1117,766032	398,074	0,396475	0,000000	0,000000
5,129631	1204,054123	401,182	0,432889	0,000000	0,000000
5,181620	1242,468667	404,289	0,449100	0,000000	0,000000
5,181688	1240,712243	407,397	0,448358	0,000000	0,000000
5,181648	1240,124454	410,506	0,448110	0,000000	0,000000
[...]
3,521629	158,005267	69,281	-0,008507	0,000000	0,000000
3,521682	154,564157	72,391	-0,009959	0,000000	0,000000
3,521702	153,294857	75,501	-0,010495	0,000000	0,000000
3,521670	152,291682	78,606	-0,010918	0,000000	0,000000
3,493676	131,089631	81,650	-0,019866	0,000000	0,000000
3,617679	216,037841	84,760	0,015982	0,000000	0,000000
3,645673	234,778816	87,871	0,023891	0,000000	0,000000
3,645699	232,810649	90,981	0,023061	0,000000	0,000000
3,645689	232,129138	94,090	0,022773	0,000000	0,000000
3,577685	184,536758	97,199	0,002689	0,000000	0,000000
3,649697	235,655870	100,245	0,024261	0,000000	0,000000
3,769681	317,844481	103,354	0,058945	0,000000	0,000000
3,769684	314,874297	106,460	0,057691	0,000000	0,000000
3,769690	313,478877	109,567	0,057103	0,000000	0,000000
3,769686	312,946627	112,672	0,056878	0,000000	0,000000
3,669657	243,917312	115,776	0,027748	0,000000	0,000000
3,741687	294,386154	118,827	0,049045	0,000000	0,000000
3,865637	379,992734	121,936	0,085171	0,000000	0,000000
3,893612	396,883562	125,050	0,092299	0,000000	0,000000
3,893702	395,135238	128,162	0,091562	0,000000	0,000000
3,893617	394,634229	131,272	0,091350	0,000000	0,000000
3,825636	347,974443	134,383	0,071660	0,000000	0,000000
3,769629	304,560223	137,425	0,053339	0,000000	0,000000
3,893641	394,273225	140,533	0,091198	0,000000	0,000000
4,017614	481,979876	143,648	0,128210	0,000000	0,000000
4,017639	479,150853	146,758	0,127016	0,000000	0,000000
4,017624	477,371288	149,866	0,126265	0,000000	0,000000
4,017593	476,650437	152,980	0,125961	0,000000	0,000000
3,921608	407,307557	156,091	0,096698	0,000000	0,000000
3,857617	361,063157	159,135	0,077183	0,000000	0,000000
3,981623	452,062815	162,240	0,115585	0,000000	0,000000
4,105639	537,017967	165,351	0,151436	0,000000	0,000000
4,141590	562,288257	168,460	0,162100	0,000000	0,000000
4,141600	561,245742	171,566	0,161660	0,000000	0,000000
4,141612	560,352488	174,671	0,161283	0,000000	0,000000
4,081669	515,385488	177,781	0,142307	0,000000	0,000000
3,957596	427,685778	180,883	0,105298	0,000000	0,000000
4,013659	470,183603	183,924	0,123232	0,000000	0,000000
4,137635	556,268050	187,028	0,159560	0,000000	0,000000
4,261610	643,724776	190,137	0,196466	0,000000	0,000000
4,265562	645,527483	193,246	0,197227	0,000000	0,000000
4,265607	644,210743	196,358	0,196671	0,000000	0,000000
4,265610	643,669237	199,468	0,196443	0,000000	0,000000
4,173574	578,269633	202,575	0,168844	0,000000	0,000000
4,049672	487,991984	205,689	0,130747	0,000000	0,000000
4,105625	530,207485	208,731	0,148562	0,000000	0,000000
4,229620	620,493233	211,838	0,186663	0,000000	0,000000
4,353574	706,632063	214,947	0,223013	0,000000	0,000000
4,389570	730,060306	218,057	0,232900	0,000000	0,000000
4,389573	728,672986	221,164	0,232314	0,000000	0,000000
4,389575	727,967176	224,271	0,232017	0,000000	0,000000
4,329569	686,018957	227,381	0,214314	0,000000	0,000000
4,205576	595,583947	230,497	0,176151	0,000000	0,000000
4,133633	542,386747	233,540	0,153702	0,000000	0,000000
4,257556	633,205902	236,651	0,192027	0,000000	0,000000
4,381565	724,056298	239,758	0,230366	0,000000	0,000000
4,505541	809,505517	242,865	0,266426	0,000000	0,000000
4,513526	814,412628	245,979	0,268497	0,000000	0,000000
4,513510	813,025307	249,088	0,267911	0,000000	0,000000
4,513551	812,045274	252,201	0,267498	0,000000	0,000000
4,425604	746,903695	255,307	0,240008	0,000000	0,000000
4,301563	658,553716	258,417	0,202724	0,000000	0,000000
4,221615	599,769050	261,461	0,177917	0,000000	0,000000
4,345563	692,006767	264,576	0,216841	0,000000	0,000000
4,469510	783,436852	267,684	0,255425	0,000000	0,000000
4,593547	868,306381	270,795	0,291240	0,000000	0,000000
4,637500	900,049291	273,907	0,304635	0,000000	0,000000
4,637440	898,568248	277,016	0,304010	0,000000	0,000000
4,637473	897,816156	280,127	0,303693	0,000000	0,000000
4,585537	861,620862	283,237	0,288418	0,000000	0,000000
4,461525	771,686861	286,345	0,250466	0,000000	0,000000
4,337579	683,236217	289,461	0,213140	0,000000	0,000000
4,377620	710,660962	292,532	0,224713	0,000000	0,000000
4,501509	800,084697	295,642	0,262450	0,000000	0,000000
4,625498	888,794524	298,751	0,299886	0,000000	0,000000
4,749563	978,241401	301,853	0,337632	0,000000	0,000000
4,761515	985,734551	304,961	0,340794	0,000000	0,000000
4,761468	984,770716	308,071	0,340388	0,000000	0,000000
4,761505	983,595138	311,181	0,339892	0,000000	0,000000
4,677520	923,390755	314,290	0,314485	0,000000	0,000000
4,553504	831,718843	317,401	0,275800	0,000000	0,000000
4,429543	743,165220	320,506	0,238430	0,000000	0,000000
4,469597	775,394096	323,548	0,252031	0,000000	0,000000
4,593531	862,655278	326,656	0,288855	0,000000	0,000000
4,717471	954,610671	329,771	0,327660	0,000000	0,000000
4,841457	1040,444035	332,884	0,363882	0,000000	0,000000
4,885444	1072,344305	335,997	0,377344	0,000000	0,000000
4,885462	1071,246251	339,106	0,376880	0,000000	0,000000
4,885464	1070,337955	342,216	0,376497	0,000000	0,000000
4,833424	1030,403029	345,333	0,359645	0,000000	0,000000
4,709507	942,453393	348,441	0,322530	0,000000	0,000000
4,585556	853,476285	351,550	0,284981	0,000000	0,000000
4,497541	789,096055	354,611	0,257813	0,000000	0,000000
4,621524	878,566073	357,720	0,295569	0,000000	0,000000
4,745502	971,265458	360,828	0,334688	0,000000	0,000000
4,869462	1057,507266	363,938	0,371083	0,000000	0,000000
4,993377	1148,592547	367,051	0,409521	0,000000	0,000000
5,009414	1158,217010	370,159	0,413582	0,000000	0,000000
5,009387	1157,174495	373,268	0,413142	0,000000	0,000000
5,009373	1156,155121	376,373	0,412712	0,000000	0,000000
4,929414	1097,324172	379,480	0,387885	0,000000	0,000000
4,805460	1007,335789	382,583	0,349910	0,000000	0,000000
4,681504	915,843222	385,694	0,311300	0,000000	0,000000
4,585575	848,005684	388,732	0,282673	0,000000	0,000000
4,709477	940,956152	391,842	0,321898	0,000000	0,000000
4,833482	1030,176244	394,951	0,359549	0,000000	0,000000
4,957394	1120,986143	398,061	0,397871	0,000000	0,000000
5,081330	1207,487133	401,173	0,434374	0,000000	0,000000
5,133291	1245,665636	404,287	0,450485	0,000000	0,000000
5,133349	1244,207735	407,390	0,449870	0,000000	0,000000
5,133344	1243,470685	410,495	0,449559	0,000000	0,000000
5,089389	1211,107588	413,602	0,435902	0,000000	0,000000
4,965410	1118,634988	416,711	0,396878	0,000000	0,000000
4,841438	1030,386830	419,822	0,359638	0,000000	0,000000
4,717457	938,275233	422,928	0,320767	0,000000	0,000000
4,741543	956,883146	425,973	0,328619	0,000000	0,000000
4,865429	1051,025391	429,087	0,368347	0,000000	0,000000
4,989398	1138,128055	432,196	0,405104	0,000000	0,000000
5,113341	1228,045857	435,301	0,443050	0,000000	0,000000
5,237330	1317,798199	438,415	0,480925	0,000000	0,000000
5,257249	1332,172412	441,525	0,486991	0,000000	0,000000
5,257344	1330,919311	444,634	0,486462	0,000000	0,000000
5,257303	1330,354663	447,747	0,486224	0,000000	0,000000
5,181370	1273,694368	450,855	0,462313	0,000000	0,000000
5,057404	1182,067582	453,968	0,423647	0,000000	0,000000
4,933404	1092,683186	457,074	0,385927	0,000000	0,000000
4,809431	1001,622205	460,186	0,347499	0,000000	0,000000
4,685537	914,102997	463,291	0,310566	0,000000	0,000000
4,561494	824,170153	466,403	0,272614	0,000000	0,000000
4,437547	735,256683	469,510	0,235093	0,000000	0,000000
4,313618	650,308473	472,635	0,199245	0,000000	0,000000
4,189620	560,775974	475,744	0,161462	0,000000	0,000000
4,065621	470,285425	478,852	0,123275	0,000000	0,000000
3,941636	381,669320	481,967	0,085879	0,000000	0,000000
3,817688	294,354913	485,071	0,049032	0,000000	0,000000
3,693675	209,211160	488,177	0,013102	0,000000	0,000000
3,569819	132,468852	491,286	-0,019284	0,000000	0,000000
3,445740	41,728377	494,395	-0,057576	0,000000	0,000000
3,321752	-49,074580	497,500	-0,095895	0,000000	0,000000
3,197747	-148,906111	500,608	-0,138024	0,000000	0,000000
3,073786	-230,515033	503,719	-0,172463	0,000000	0,000000
2,949863	-311,419302	506,826	-0,206604	0,000000	0,000000
2,825877	-396,571155	509,935	-0,242539	0,000000	0,000000
2,701879	-446,357329	513,044	-0,263548	0,000000	0,000000
2,577896	-524,157194	516,150	-0,296380	0,000000	0,000000
2,453852	-632,133303	519,262	-0,341946	0,000000	0,000000
2,329851	-707,910619	522,371	-0,373924	0,000000	0,000000
2,205883	-787,324589	525,481	-0,407437	0,000000	0,000000
2,081843	-857,834947	528,590	-0,437192	0,000000	0,000000
1,957846	-919,269291	531,693	-0,463117	0,000000	0,000000
1,833816	-977,364346	534,806	-0,487633	0,000000	0,000000
1,709906	-1017,110671	537,918	-0,504406	0,000000	0,000000
1,585864	-1041,675152	541,023	-0,514772	0,000000	0,000000
1,461877	-0,510265	544,135	-0,075401	0,000000	0,000000
1,337893	-0,204800	547,251	-0,075272	0,000000	0,000000
1,273886	0,313564	548,851	-0,075053	0,000000	0,000000