File: Nanoindentation Datenauswertung/data/PDMS/14.09/APM-PDMS-150ms,4um,7nms,9cycles,1,5um offset,75%,5x1-8
Quasi static measurement routine
Tip parameters (shape,radius, material...)
14.09.2022

Piezo position[nm]	MEMS displ.[nm]	Time[ms]	Cap [pf]	Temp [°C]	Rh [%]
eoh

X-Pos [um]	Y-Pos [um]
0,000274	0,001057

POC
1,831998
0,387126	-0,219842	9,317	-0,075341	22,270000	51,370000
0,443129	-0,093722	17,733	-0,075288	22,270000	51,385000
0,499109	0,000000	26,149	-0,075249	22,270000	51,400000
0,555128	-0,454726	34,565	-0,075440	22,270000	51,410000
0,611125	-0,118021	42,982	-0,075298	22,280000	51,400000
0,667108	-0,124963	51,396	-0,075301	22,270000	51,410000
0,723085	-0,227942	59,812	-0,075345	22,270000	51,425000
0,779106	-0,540349	68,232	-0,075477	22,260000	51,425000
0,835097	-0,251083	76,642	-0,075354	22,260000	51,425000
0,891121	-0,344805	85,054	-0,075394	22,260000	51,425000
0,947109	-0,407287	93,471	-0,075420	22,270000	51,410000
1,003129	-0,219842	101,884	-0,075341	22,280000	51,360000
1,059098	-0,548449	110,296	-0,075480	22,260000	51,425000
1,115123	-0,400344	118,704	-0,075417	22,270000	51,400000
1,171129	-0,485967	127,118	-0,075454	22,280000	51,385000
1,227081	-0,376046	135,530	-0,075407	22,270000	51,400000
1,283147	-0,454726	143,942	-0,075440	22,270000	51,410000
1,339061	-0,838872	152,349	-0,075603	22,280000	51,400000
1,395077	-0,446627	160,762	-0,075437	22,260000	51,410000
1,451098	-0,627129	169,176	-0,075513	22,270000	51,400000
1,507112	-1,019374	177,592	-0,075679	22,280000	51,370000
1,563128	-0,955735	186,012	-0,075652	22,260000	51,400000
1,619077	-1,214918	194,425	-0,075761	22,270000	51,385000
1,675102	-1,528482	202,841	-0,075894	22,270000	51,400000
1,731075	-1,967010	211,250	-0,076079	22,270000	51,410000
1,787085	-1,928827	219,655	-0,076063	22,270000	51,385000
1,843092	-193,707651	228,068	-0,156993	22,270000	51,385000
1,899055	-165,342213	236,484	-0,145023	22,260000	51,370000
1,955059	-130,972767	244,906	-0,130519	22,270000	51,370000
1,999070	-103,116438	253,318	-0,118764	22,270000	51,400000
1,998055	-105,820498	261,737	-0,119905	22,260000	51,400000
1,971098	-126,183677	270,035	-0,128498	22,270000	51,385000
2,027073	-86,366771	278,443	-0,111695	22,270000	51,370000
2,083068	-49,183344	286,860	-0,096004	22,270000	51,385000
2,139047	-11,528991	295,277	-0,080114	22,260000	51,400000
2,166021	4,538007	303,693	-0,073333	22,260000	51,370000
2,148046	-10,691277	312,108	-0,079760	22,280000	51,370000
2,092077	-51,347055	320,517	-0,096917	22,270000	51,400000
2,127044	-25,543358	328,818	-0,086028	22,260000	51,410000
2,183053	13,715843	337,233	-0,069460	22,270000	51,400000
2,239043	52,373371	345,647	-0,053147	22,260000	51,385000
2,294995	90,371371	354,061	-0,037112	22,280000	51,400000
2,333081	115,398678	362,479	-0,026550	22,280000	51,370000
2,326106	109,018624	370,894	-0,029243	22,270000	51,385000
2,270055	65,854330	379,315	-0,047458	22,270000	51,385000
2,214052	25,097888	387,731	-0,064657	22,270000	51,425000
2,257057	57,687768	396,036	-0,050904	22,260000	51,385000
2,313047	98,335447	404,452	-0,033751	22,260000	51,385000
2,369045	136,765033	412,872	-0,017534	22,270000	51,385000
2,425026	176,353997	421,291	-0,000827	22,280000	51,370000
2,481119	214,259432	429,704	0,015169	22,260000	51,385000
2,500034	226,000167	438,120	0,020124	22,270000	51,410000
2,474070	204,704393	446,531	0,011137	22,260000	51,410000
2,418100	163,492067	454,948	-0,006255	22,270000	51,400000
2,362092	121,762533	463,364	-0,023865	22,270000	51,425000
2,359066	121,355247	471,663	-0,024037	22,270000	51,370000
2,415061	163,265283	480,080	-0,006351	22,270000	51,400000
2,471054	203,317073	488,495	0,010551	22,270000	51,385000
2,527078	242,781074	496,912	0,027205	22,260000	51,410000
2,583038	282,315656	505,322	0,043889	22,270000	51,410000
2,639042	321,176827	513,734	0,060288	22,280000	51,385000
2,667024	339,078930	522,152	0,067843	22,270000	51,385000
2,650049	324,719759	530,570	0,061783	22,270000	51,410000
2,594053	281,845888	538,984	0,043690	22,270000	51,435000
2,538016	241,127629	547,402	0,026507	22,270000	51,410000
2,482084	199,844722	555,816	0,009086	22,270000	51,425000
2,489029	207,815740	564,108	0,012450	22,270000	51,370000
2,545059	248,996825	572,524	0,029828	22,270000	51,410000
2,601046	290,286674	580,940	0,047252	22,270000	51,410000
2,657023	330,300281	589,354	0,064138	22,270000	51,400000
2,713030	370,304632	597,771	0,081020	22,270000	51,400000
2,769056	410,145836	606,189	0,097833	22,260000	51,400000
2,825092	449,742900	614,605	0,114543	22,270000	51,410000
2,834027	454,837456	623,028	0,116693	22,260000	51,400000
2,798070	426,816823	631,449	0,104868	22,280000	51,370000
2,742029	383,535665	639,862	0,086604	22,280000	51,385000
2,686070	342,252758	648,275	0,069182	22,280000	51,400000
2,630021	301,111013	656,695	0,051820	22,270000	51,410000
2,591032	273,607588	664,989	0,040214	22,270000	51,345000
2,647039	316,199135	673,408	0,058188	22,260000	51,410000
2,703082	358,680761	681,823	0,076115	22,270000	51,410000
2,759048	399,085456	690,241	0,093166	22,260000	51,435000
2,815021	440,565064	698,658	0,110670	22,270000	51,400000
2,871001	480,272049	707,074	0,127426	22,260000	51,410000
2,927028	521,883562	715,489	0,144986	22,280000	51,385000
2,983018	561,904112	723,897	0,161875	22,270000	51,370000
3,000989	573,403019	732,307	0,166728	22,270000	51,410000
2,974023	551,472018	740,722	0,157473	22,270000	51,410000
2,918006	507,924735	749,138	0,139096	22,270000	51,400000
2,862025	466,390745	757,554	0,121568	22,280000	51,410000
2,806046	424,982875	765,965	0,104094	22,260000	51,425000
2,750044	383,880471	774,380	0,086749	22,270000	51,400000
2,723076	363,619113	782,685	0,078199	22,280000	51,400000
2,779046	407,190693	791,097	0,096586	22,280000	51,410000
2,835044	449,178253	799,515	0,114305	22,270000	51,360000
2,891069	491,549957	807,931	0,132186	22,280000	51,400000
2,947021	532,441777	816,338	0,149442	22,270000	51,385000
3,003004	572,830273	824,758	0,166486	22,270000	51,385000
3,059043	613,995159	833,181	0,183857	22,280000	51,410000
3,115029	654,588455	841,595	0,200988	22,270000	51,385000
3,168033	693,472767	850,012	0,217397	22,270000	51,400000
3,167991	692,100489	858,428	0,216818	22,280000	51,370000
3,120007	654,399854	866,850	0,200908	22,270000	51,425000
3,064038	611,385978	875,263	0,182756	22,270000	51,385000
3,008032	569,766366	883,682	0,165193	22,280000	51,410000
2,952017	528,051874	892,099	0,147589	22,270000	51,385000
2,896036	486,417219	900,511	0,130020	22,280000	51,400000
2,840017	445,392337	908,931	0,112707	22,270000	51,360000
2,883023	479,150853	917,232	0,126953	22,270000	51,385000
2,939103	521,451977	925,645	0,144804	22,270000	51,360000
2,995037	563,918561	934,058	0,162725	22,270000	51,400000
3,050971	605,710576	942,476	0,180361	22,270000	51,370000
3,106990	646,421894	950,893	0,197542	22,270000	51,370000
3,163043	687,633062	959,302	0,214933	22,270000	51,400000
3,219011	728,884729	967,726	0,232341	22,280000	51,400000
3,275027	770,425661	976,146	0,249871	22,270000	51,410000
3,330977	811,637987	984,564	0,267263	22,270000	51,435000
3,334986	812,500000	992,972	0,267626	22,270000	51,385000
3,294007	780,215584	1001,391	0,254002	22,270000	51,360000
3,238011	736,330439	1009,811	0,235483	22,270000	51,385000
3,181993	694,577764	1018,226	0,217863	22,280000	51,385000
3,126032	651,861254	1026,642	0,199837	22,260000	51,335000
3,070023	609,967417	1035,061	0,182158	22,270000	51,400000
3,014072	568,072423	1043,477	0,164478	22,280000	51,385000
2,958004	527,079939	1051,886	0,147179	22,270000	51,410000
2,902043	485,875713	1060,306	0,129791	22,260000	51,385000
2,846048	445,455976	1068,716	0,112734	22,270000	51,400000
2,790034	405,184344	1077,127	0,095739	22,270000	51,370000
2,734040	363,972018	1085,547	0,078348	22,270000	51,385000
2,678069	324,107672	1093,966	0,061525	22,270000	51,385000
2,622069	283,310732	1102,383	0,044309	22,280000	51,385000
2,566082	243,871029	1110,791	0,027665	22,270000	51,410000
2,510076	204,688194	1119,205	0,011130	22,270000	51,400000
2,454054	165,224193	1127,614	-0,005524	22,280000	51,360000
2,398072	125,595888	1136,033	-0,022247	22,270000	51,385000
2,342033	86,632896	1144,452	-0,038689	22,270000	51,400000
2,286061	47,521799	1152,865	-0,055194	22,280000	51,385000
2,230043	8,982292	1161,283	-0,071458	22,270000	51,385000
2,174088	-28,091214	1169,702	-0,087103	22,250000	51,380000
2,118083	-67,124787	1178,117	-0,103575	22,270000	51,410000
2,062064	-105,099646	1186,530	-0,119601	22,270000	51,385000
2,006065	-141,953310	1194,949	-0,135153	22,260000	51,385000
1,950088	-178,744492	1203,363	-0,150679	22,270000	51,400000
1,894070	-215,042765	1211,775	-0,165997	22,260000	51,370000
1,838108	-251,904528	1220,202	-0,181552	22,260000	51,385000
1,782129	-286,987883	1228,616	-0,196357	22,270000	51,400000
1,726138	-323,888987	1237,036	-0,211930	22,260000	51,400000
1,670094	-357,756267	1245,449	-0,226222	22,270000	51,360000
1,614058	-393,967760	1253,864	-0,241503	22,270000	51,370000
1,558095	-429,528982	1262,280	-0,256510	22,260000	51,425000
1,502068	-464,548699	1270,692	-0,271288	22,260000	51,425000
1,446127	-500,211743	1279,100	-0,286338	22,270000	51,400000
1,390133	-532,378138	1287,512	-0,299912	22,270000	51,360000
1,334113	-561,685427	1295,926	-0,312280	22,270000	51,360000
1,278110	-590,559973	1304,342	-0,324465	22,270000	51,410000
1,222130	-619,027233	1312,755	-0,336478	22,260000	51,345000
1,166153	-644,508109	1321,171	-0,347231	22,270000	51,360000
1,110102	-670,679752	1329,587	-0,358275	22,270000	51,385000
1,054107	-688,723017	1337,998	-0,365890	22,280000	51,400000
0,998082	-698,033916	1346,410	-0,369819	22,270000	51,410000
0,942103	-709,431002	1354,826	-0,374628	22,270000	51,385000
0,886119	-660,044015	1363,242	-0,353787	22,280000	51,400000
0,830132	-0,118021	1371,655	-0,075298	22,270000	51,360000
0,774082	-0,344805	1380,067	-0,075394	22,280000	51,370000
0,718164	-0,118021	1388,481	-0,075298	22,260000	51,385000
0,662153	-0,124963	1396,891	-0,075301	22,270000	51,370000
0,606096	-0,016199	1405,306	-0,075255	22,270000	51,370000
0,550100	-0,008099	1413,718	-0,075252	22,280000	51,385000
0,494153	0,039340	1422,131	-0,075232	22,280000	51,360000
0,438127	0,078680	1430,543	-0,075215	22,270000	51,385000
0,382100	0,015042	1438,957	-0,075242	22,270000	51,400000
0,332138	-0,023141	1446,466	-0,075258	22,280000	51,410000

X-Pos [um]	Y-Pos [um]
0,000341	0,000880

POC
2,152083
0,707185	0,234884	9,320	-0,075321	22,270000	51,360000
0,763220	0,031241	17,742	-0,075407	22,280000	51,360000
0,819228	0,133062	26,159	-0,075364	22,280000	51,385000
0,875261	0,359847	34,570	-0,075269	22,270000	51,385000
0,931200	0,297366	42,993	-0,075295	22,280000	51,385000
0,987281	0,046283	51,402	-0,075401	22,280000	51,370000
1,043180	0,289266	59,820	-0,075298	22,270000	51,385000
1,099208	0,023141	68,236	-0,075411	22,280000	51,360000
1,155175	-0,039340	76,651	-0,075437	22,280000	51,370000
1,211199	0,124963	85,068	-0,075368	22,280000	51,410000
1,267177	0,015042	93,488	-0,075414	22,270000	51,370000
1,323149	-0,101822	101,902	-0,075463	22,270000	51,360000
1,379229	-0,101822	110,316	-0,075463	22,260000	51,400000
1,435191	0,023141	118,732	-0,075411	22,270000	51,370000
1,491165	-0,047440	127,144	-0,075440	22,260000	51,370000
1,547194	-0,369104	135,559	-0,075576	22,260000	51,370000
1,603179	-0,242984	143,975	-0,075523	22,260000	51,385000
1,659129	-0,016199	152,393	-0,075427	22,270000	51,370000
1,715181	-0,141162	160,806	-0,075480	22,270000	51,360000
1,771197	-3,927077	169,219	-0,077078	22,250000	51,380000
1,827136	-206,664461	177,636	-0,162633	22,280000	51,370000
1,883157	-178,745649	186,056	-0,150851	22,260000	51,385000
1,939176	-145,315740	194,471	-0,136744	22,270000	51,400000
1,995132	-108,987383	202,881	-0,121413	22,270000	51,400000
2,051194	-72,086280	211,294	-0,105841	22,270000	51,360000
2,107087	-35,388820	219,710	-0,090354	22,260000	51,400000
2,163111	1,221860	228,125	-0,074905	22,280000	51,370000
2,219110	38,091723	236,537	-0,059346	22,280000	51,385000
2,275104	74,875963	244,957	-0,043823	22,270000	51,370000
2,319113	103,571164	253,380	-0,031713	22,280000	51,400000
2,318121	100,662304	261,797	-0,032941	22,270000	51,370000
2,291183	79,492650	270,100	-0,041875	22,270000	51,370000
2,347183	120,359014	278,526	-0,024629	22,270000	51,360000
2,403139	158,593056	286,947	-0,008494	22,260000	51,345000
2,459160	196,771558	295,365	0,007617	22,270000	51,385000
2,486166	214,085873	303,779	0,014924	22,270000	51,385000
2,468173	199,366854	312,194	0,008712	22,270000	51,385000
2,412177	157,652362	320,610	-0,008891	22,270000	51,345000
2,447142	183,705985	328,917	0,002104	22,270000	51,345000
2,503076	223,374787	337,338	0,018844	22,280000	51,370000
2,559167	262,901270	345,752	0,035524	22,270000	51,400000
2,615124	302,718176	354,172	0,052327	22,270000	51,360000
2,653203	327,783666	362,582	0,062904	22,270000	51,345000
2,646178	321,490392	370,997	0,060249	22,260000	51,345000
2,590163	278,498500	379,415	0,042106	22,270000	51,370000
2,534131	237,145013	387,830	0,024655	22,270000	51,385000
2,577162	270,072756	396,168	0,038550	22,270000	51,370000
2,633170	311,002758	404,583	0,055823	22,270000	51,370000
2,689102	351,156370	413,004	0,072768	22,260000	51,400000
2,745114	390,346147	421,422	0,089306	22,270000	51,360000
2,801147	431,001925	429,848	0,106462	22,280000	51,370000
2,820072	443,018041	438,262	0,111533	22,280000	51,345000
2,794115	422,098313	446,674	0,102705	22,260000	51,370000
2,738113	378,996501	455,086	0,084516	22,270000	51,370000
2,682103	337,644170	463,496	0,067065	22,260000	51,360000
2,679138	336,499833	471,792	0,066583	22,270000	51,370000
2,735156	378,950218	480,210	0,084497	22,270000	51,360000
2,791078	419,519217	488,621	0,101617	22,280000	51,335000
2,847091	460,339298	497,037	0,118843	22,270000	51,385000
2,903145	501,238059	505,455	0,136102	22,260000	51,360000
2,959122	542,199302	513,873	0,153388	22,270000	51,370000
2,987051	561,347564	522,282	0,161468	22,280000	51,370000
2,970119	547,929086	530,699	0,155806	22,280000	51,370000
2,914097	504,349406	539,106	0,137415	22,280000	51,360000
2,858133	461,570414	547,520	0,119362	22,280000	51,400000
2,802103	420,397429	555,935	0,101987	22,270000	51,335000
2,809163	425,930511	564,242	0,104322	22,280000	51,400000
2,865090	469,745076	572,658	0,122812	22,270000	51,400000
2,921122	511,184186	581,069	0,140299	22,260000	51,360000
2,977112	553,071081	589,479	0,157976	22,260000	51,385000
3,033062	593,874963	597,892	0,175195	22,260000	51,345000
3,089123	635,118530	606,309	0,192600	22,280000	51,385000
3,145138	675,562565	614,726	0,209667	22,270000	51,360000
3,154046	681,010025	623,141	0,211966	22,270000	51,370000
3,118162	652,472184	631,560	0,199923	22,260000	51,335000
3,062145	610,123621	639,979	0,182052	22,270000	51,345000
3,006142	566,896845	648,392	0,163810	22,280000	51,345000
2,950218	525,731959	656,807	0,146438	22,270000	51,370000
2,911144	496,386487	665,108	0,134055	22,270000	51,385000
2,967080	540,811982	673,527	0,152802	22,270000	51,360000
3,023137	582,329773	681,944	0,170323	22,270000	51,360000
3,079182	624,246751	690,361	0,188012	22,280000	51,400000
3,135155	666,775816	698,776	0,205959	22,270000	51,370000
3,191136	707,541515	707,194	0,223162	22,280000	51,345000
3,247144	748,330356	715,604	0,240375	22,280000	51,370000
3,303099	789,267300	724,012	0,257650	22,270000	51,360000
3,321097	802,082948	732,428	0,263059	22,270000	51,400000
3,294031	780,818415	740,842	0,254085	22,270000	51,345000
3,238070	737,372954	749,253	0,235751	22,280000	51,385000
3,182090	693,950635	757,669	0,217427	22,270000	51,360000
3,126109	652,518467	766,090	0,199942	22,270000	51,345000
3,070148	610,617687	774,502	0,182260	22,270000	51,385000
3,043098	590,497491	782,827	0,173770	22,270000	51,360000
3,099101	634,663803	791,240	0,192408	22,280000	51,360000
3,155157	676,621279	799,657	0,210114	22,280000	51,370000
3,211115	718,789340	808,071	0,227909	22,270000	51,385000
3,267057	760,542015	816,486	0,245528	22,270000	51,320000
3,323057	801,895503	824,909	0,262979	22,270000	51,360000
3,379072	842,801207	833,325	0,280242	22,270000	51,385000
3,435040	884,169737	841,742	0,297699	22,260000	51,385000
3,488018	923,681178	850,154	0,314373	22,270000	51,360000
3,488018	921,934010	858,571	0,313636	22,270000	51,335000
3,440021	883,919811	866,987	0,297594	22,270000	51,360000
3,384024	841,297023	875,397	0,279607	22,280000	51,360000
3,328060	797,827264	883,810	0,261263	22,280000	51,370000
3,272045	756,708660	892,226	0,243911	22,270000	51,360000
3,216081	714,571840	900,636	0,226129	22,280000	51,360000
3,160119	671,940953	909,041	0,208139	22,280000	51,370000
3,203089	706,412220	917,364	0,222686	22,270000	51,345000
3,259114	749,372871	925,781	0,240815	22,260000	51,360000
3,315078	792,880813	934,199	0,259175	22,270000	51,345000
3,371064	834,109338	942,612	0,276574	22,270000	51,385000
3,427050	875,673412	951,031	0,294114	22,270000	51,385000
3,483093	917,340464	959,449	0,311697	22,260000	51,345000
3,539001	958,787674	967,860	0,329188	22,280000	51,370000
3,594993	1000,509108	976,278	0,346794	22,280000	51,385000
3,650958	1041,603414	984,692	0,364136	22,270000	51,345000
3,655011	1043,892088	993,110	0,365102	22,280000	51,345000
3,613987	1011,670153	1001,522	0,351504	22,270000	51,370000
3,558054	968,843722	1009,928	0,333432	22,270000	51,385000
3,502036	925,508183	1018,337	0,315144	22,270000	51,360000
3,446008	883,284582	1026,757	0,297326	22,270000	51,360000
3,390008	840,089048	1035,178	0,279097	22,260000	51,370000
3,334074	799,096564	1043,591	0,261798	22,280000	51,370000
3,278064	756,207651	1052,002	0,243699	22,280000	51,370000
[...]
1,945676	-143,662295	194,534	-0,136102	22,260000	51,320000
2,001612	-107,348980	202,943	-0,120778	22,260000	51,305000
2,057632	-71,153686	211,353	-0,105503	22,280000	51,295000
2,113657	-34,385645	219,763	-0,089987	22,260000	51,295000
2,169629	2,311815	228,175	-0,074501	22,270000	51,305000
2,225600	39,761367	236,586	-0,058697	22,280000	51,280000
2,281642	76,882313	245,000	-0,043032	22,270000	51,320000
2,325643	105,741817	253,414	-0,030854	22,270000	51,305000
2,324639	103,178919	261,834	-0,031935	22,280000	51,295000
2,297633	82,180511	270,139	-0,040796	22,280000	51,280000
2,353627	121,448969	278,552	-0,024225	22,280000	51,305000
2,409562	161,116614	286,971	-0,007485	22,280000	51,305000
2,465634	198,644846	295,386	0,008352	22,260000	51,320000
2,492612	216,006600	303,799	0,015678	22,280000	51,305000
2,474588	201,301466	312,217	0,009473	22,280000	51,295000
2,418645	159,604330	320,639	-0,008124	22,280000	51,320000
2,453663	185,868539	328,965	0,002960	22,250000	51,290000
2,509581	225,591723	337,374	0,019723	22,270000	51,295000
2,565581	264,735217	345,790	0,036242	22,270000	51,280000
2,621630	303,979376	354,206	0,052803	22,270000	51,265000
2,659569	329,750676	362,622	0,063678	22,280000	51,225000
2,652635	323,606663	371,034	0,061085	22,270000	51,320000
2,596639	280,912137	379,443	0,043068	22,260000	51,320000
2,540582	238,501092	387,855	0,025171	22,270000	51,305000
2,583621	271,977285	396,159	0,039298	22,280000	51,265000
2,639628	313,125972	404,581	0,056663	22,270000	51,320000
2,695548	353,436945	412,996	0,073674	22,260000	51,265000
2,751658	393,050207	421,408	0,090391	22,270000	51,305000
2,807583	433,384321	429,823	0,107412	22,270000	51,305000
2,826565	445,996325	438,238	0,112734	22,270000	51,255000
2,800581	425,130980	446,647	0,103929	22,260000	51,335000
2,744623	382,979117	455,065	0,086141	22,270000	51,320000
2,688621	341,217186	463,479	0,068517	22,270000	51,255000
2,685577	339,532500	471,801	0,067806	22,270000	51,320000
2,741584	381,920403	480,252	0,085694	22,270000	51,265000
2,797605	423,704319	488,665	0,103327	22,280000	51,320000
2,853548	464,736143	497,074	0,120642	22,270000	51,265000
2,909601	505,282000	505,489	0,137752	22,270000	51,255000
2,965590	545,734134	513,904	0,154823	22,270000	51,295000
2,993552	564,552633	522,320	0,162765	22,270000	51,255000
2,976531	551,071673	530,737	0,157076	22,280000	51,305000
2,920614	507,233968	539,152	0,138576	22,270000	51,305000
2,864571	464,626222	547,570	0,120596	22,270000	51,295000
2,808572	423,602497	555,986	0,103284	22,260000	51,305000
2,815554	429,583364	564,277	0,105808	22,270000	51,265000
2,871575	473,051966	572,698	0,124151	22,260000	51,280000
2,927592	514,444794	581,108	0,141619	22,280000	51,305000
2,983576	556,103747	589,520	0,159199	22,280000	51,320000
3,039584	596,923828	597,936	0,176425	22,270000	51,280000
3,095610	637,760108	606,358	0,193658	22,260000	51,280000
3,151551	678,885654	614,773	0,211013	22,270000	51,295000
3,160583	684,395596	623,201	0,213338	22,270000	51,305000
3,124531	655,967676	631,621	0,201342	22,270000	51,280000
3,068515	613,195627	640,039	0,183292	22,260000	51,295000
3,012543	570,313657	648,461	0,165196	22,270000	51,280000
2,956620	529,132572	656,875	0,147817	22,270000	51,265000
2,917576	499,693378	665,193	0,135394	22,280000	51,280000
2,973574	543,821507	673,604	0,154016	22,270000	51,295000
3,029558	585,424920	682,015	0,171573	22,270000	51,280000
3,085577	627,264375	690,433	0,189229	22,280000	51,295000
3,141609	669,911461	698,851	0,207226	22,270000	51,305000
3,197618	710,401779	707,274	0,224313	22,270000	51,295000
3,253515	751,809649	715,686	0,241787	22,270000	51,305000
3,309532	793,391079	724,104	0,259334	22,270000	51,265000
3,327530	805,038091	732,520	0,264250	22,270000	51,295000
3,300476	783,090890	740,938	0,254988	22,260000	51,295000
3,244527	739,707911	749,354	0,236680	22,270000	51,295000
3,188578	696,881480	757,773	0,218607	22,260000	51,305000
3,132628	654,964501	766,195	0,200918	22,260000	51,265000
3,076586	613,963918	774,610	0,183616	22,280000	51,320000
3,049546	593,945544	782,908	0,175168	22,270000	51,280000
3,105523	636,991817	791,321	0,193334	22,270000	51,295000
3,161557	680,532157	799,738	0,211708	22,270000	51,280000
3,217573	721,539683	808,152	0,229013	22,270000	51,280000
3,273517	763,308557	816,567	0,246640	22,260000	51,280000
3,329554	804,787008	824,984	0,264144	22,270000	51,295000
3,385518	846,211076	833,395	0,281625	22,260000	51,305000
3,441525	887,477784	841,810	0,299039	22,260000	51,265000
3,494526	926,557640	850,226	0,315531	22,260000	51,280000
3,494528	925,577607	858,640	0,315117	22,270000	51,305000
3,446479	887,477784	867,050	0,299039	22,260000	51,280000
3,390560	844,313490	875,458	0,280824	22,270000	51,265000
3,334513	801,432677	883,869	0,262728	22,260000	51,265000
3,278520	760,165969	892,291	0,245313	22,270000	51,295000
3,222535	718,098573	900,710	0,227561	22,270000	51,295000
3,166527	675,296440	909,128	0,209499	22,270000	51,280000
3,209605	709,751509	917,420	0,224039	22,270000	51,265000
3,265572	753,072006	925,833	0,242320	22,260000	51,295000
3,321524	794,997084	934,252	0,260012	22,280000	51,305000
3,377497	837,997075	942,672	0,278158	22,270000	51,265000
3,433486	879,969592	951,086	0,295871	22,270000	51,265000
3,489469	921,408703	959,505	0,313358	22,260000	51,255000
3,545470	963,396262	967,916	0,331077	22,270000	51,265000
3,601482	1005,040173	976,334	0,348650	22,270000	51,280000
3,657458	1046,400604	984,750	0,366104	22,270000	51,255000
3,661465	1047,654862	993,160	0,366634	22,260000	51,280000
3,620453	1015,855256	1001,581	0,353214	22,280000	51,295000
3,564499	972,025650	1009,992	0,334718	22,270000	51,320000
3,508472	929,176077	1018,400	0,316636	22,270000	51,295000
3,452471	886,364688	1026,814	0,298569	22,260000	51,295000
3,396511	844,901279	1035,231	0,281072	22,280000	51,305000
3,340527	802,960003	1043,650	0,263373	22,270000	51,265000
3,284552	760,854423	1052,068	0,245604	22,270000	51,280000
3,228473	718,851822	1060,483	0,227879	22,260000	51,265000
3,172584	677,600156	1068,899	0,210471	22,270000	51,295000
3,116593	635,337215	1077,317	0,192636	22,270000	51,295000
3,060482	594,728877	1085,733	0,175499	22,270000	51,265000
3,004565	552,866280	1094,144	0,157833	22,270000	51,255000
2,948602	512,257942	1102,559	0,140696	22,260000	51,295000
2,892615	471,774567	1110,974	0,123612	22,270000	51,305000
2,836593	431,471694	1119,384	0,106604	22,260000	51,280000
2,780582	391,294940	1127,797	0,089650	22,270000	51,265000
2,724620	351,007109	1136,215	0,072648	22,270000	51,295000
2,668623	309,802882	1144,632	0,055260	22,270000	51,295000
2,612579	269,257026	1153,048	0,038150	22,270000	51,265000
2,556634	229,824265	1161,468	0,021509	22,270000	51,265000
2,500649	190,140421	1169,883	0,004763	22,280000	51,295000
2,444652	149,978710	1178,292	-0,012186	22,270000	51,280000
2,388626	110,068082	1186,706	-0,029028	22,260000	51,295000
2,332688	71,709077	1195,116	-0,045215	22,270000	51,280000
2,276663	32,236976	1203,532	-0,061873	22,260000	51,255000
2,220676	-5,478701	1211,947	-0,077789	22,270000	51,265000
2,164612	-42,208559	1220,362	-0,093289	22,260000	51,265000
2,108615	-80,034157	1228,774	-0,109251	22,280000	51,295000
2,052634	-116,841538	1237,193	-0,124784	22,270000	51,280000
1,996640	-153,773882	1245,607	-0,140369	22,270000	51,280000
1,940691	-191,395836	1254,021	-0,156246	22,270000	51,305000
1,884624	-227,316906	1262,432	-0,171404	22,260000	51,280000
1,828701	-262,948710	1270,845	-0,186441	22,270000	51,265000
1,772679	-300,743067	1279,258	-0,202390	22,260000	51,295000
1,716664	-336,030065	1287,676	-0,217281	22,270000	51,255000
1,660660	-370,627453	1296,095	-0,231881	22,270000	51,255000
1,604707	-405,294265	1304,512	-0,246511	22,270000	51,280000
1,548671	-438,268291	1312,925	-0,260426	22,270000	51,280000
1,492676	-473,131804	1321,335	-0,275138	22,260000	51,255000
1,436723	-506,419394	1329,750	-0,289186	22,270000	51,295000
1,380652	-536,807381	1338,164	-0,302009	22,270000	51,295000
1,324731	-567,673236	1346,575	-0,315035	22,280000	51,265000
1,268673	-597,716417	1354,988	-0,327713	22,260000	51,255000
1,212759	-626,364179	1363,398	-0,339802	22,270000	51,305000
1,156742	-649,744983	1371,812	-0,349669	22,270000	51,295000
1,100688	-675,187676	1380,234	-0,360406	22,270000	51,265000
1,044691	-701,044598	1388,651	-0,371317	22,260000	51,280000
0,988750	-714,862263	1397,065	-0,377148	22,280000	51,295000
0,932714	-719,831855	1405,481	-0,379246	22,270000	51,280000
0,876677	-621,238383	1413,893	-0,337639	22,260000	51,295000
0,820700	0,226785	1422,312	-0,075381	22,280000	51,265000
0,764762	0,031241	1430,725	-0,075463	22,270000	51,255000
0,708703	0,148104	1439,144	-0,075414	22,270000	51,280000
0,658660	0,226785	1446,655	-0,075381	22,270000	51,255000