File: Nanoindentation Datenauswertung/data/PDMS/14.09/APM-PDMS-150ms,3um,20nms,9cycles,1,5um offset,25%,9x1-6
Quasi static measurement routine
Tip parameters (shape,radius, material...)
14.09.2022

Piezo position[nm]	MEMS displ.[nm]	Time[ms]	Cap [pf]	Temp [°C]	Rh [%]
eoh

X-Pos [um]	Y-Pos [um]
0,000018	0,000753

POC
1,825984
0,422180	0,023141	5,864	-0,075642	22,280000	51,515000
0,521137	-0,142319	10,822	-0,075712	22,280000	51,530000
0,620106	-0,039340	15,776	-0,075668	22,270000	51,515000
0,719148	-0,219842	20,730	-0,075745	22,270000	51,490000
0,818089	-0,306622	25,688	-0,075781	22,250000	51,500000
0,917114	-0,142319	30,645	-0,075712	22,270000	51,490000
1,016132	-0,180502	35,604	-0,075728	22,270000	51,515000
1,115118	-0,173560	40,566	-0,075725	22,270000	51,490000
1,214155	-0,321664	45,526	-0,075788	22,270000	51,475000
1,313115	-0,361004	50,486	-0,075804	22,280000	51,505000
1,412132	-0,242984	55,440	-0,075754	22,280000	51,490000
1,511111	-0,502166	60,398	-0,075864	22,270000	51,505000
1,610103	-0,485967	65,356	-0,075857	22,260000	51,515000
1,709059	-0,870113	70,318	-0,076019	22,280000	51,515000
1,808099	1,285499	75,278	-0,075109	22,280000	51,475000
1,907034	-152,723267	80,237	-0,140101	22,270000	51,515000
1,994093	-101,612254	85,198	-0,118532	22,270000	51,505000
1,994029	-106,291423	90,160	-0,120507	22,270000	51,515000
1,985053	-113,016282	95,115	-0,123345	22,270000	51,490000
1,886048	-187,908444	100,072	-0,154949	22,270000	51,490000
1,946104	-141,813305	104,910	-0,135497	22,280000	51,475000
2,045057	-72,289923	109,872	-0,106158	22,260000	51,475000
2,144067	-3,675994	114,830	-0,077203	22,280000	51,475000
2,162052	4,404945	119,795	-0,073793	22,270000	51,490000
2,162086	2,264375	124,752	-0,074696	22,270000	51,515000
2,084077	-54,435260	129,708	-0,098624	22,270000	51,475000
1,985134	-128,073164	134,665	-0,129699	22,280000	51,490000
1,931142	-165,263533	139,500	-0,145393	22,270000	51,475000
2,030019	-91,187102	144,459	-0,114133	22,260000	51,515000
2,129074	-18,381128	149,416	-0,083409	22,270000	51,505000
2,228070	48,500676	154,375	-0,055185	22,270000	51,505000
2,327057	115,671745	159,337	-0,026838	22,280000	51,450000
2,330073	115,986467	164,294	-0,026706	22,270000	51,490000
2,330006	113,767217	169,256	-0,027642	22,270000	51,505000
2,237057	44,378055	174,211	-0,056924	22,270000	51,465000
2,138028	-28,593380	179,171	-0,087718	22,280000	51,450000
2,039098	-95,710067	184,132	-0,116042	22,270000	51,515000
1,961070	-152,151677	188,972	-0,139860	22,270000	51,490000
2,060043	-76,343121	193,926	-0,107869	22,270000	51,490000
2,159029	-4,617845	198,887	-0,077601	22,270000	51,465000
2,258057	66,873704	203,846	-0,047431	22,270000	51,505000
2,357020	134,483301	208,808	-0,018900	22,270000	51,490000
2,456048	204,437111	213,765	0,010621	22,270000	51,515000
2,498022	229,761784	218,723	0,021308	22,280000	51,475000
2,497977	227,151446	223,684	0,020206	22,270000	51,475000
2,444045	184,881563	228,644	0,002368	22,270000	51,505000
2,345025	110,788933	233,600	-0,028899	22,270000	51,475000
2,246053	42,191203	238,557	-0,057847	22,270000	51,475000
2,147067	-28,695201	243,518	-0,087761	22,270000	51,450000
2,048076	-97,191110	248,479	-0,116667	22,280000	51,465000
2,035964	-102,215084	253,330	-0,118787	22,270000	51,505000
2,135065	-25,936759	258,292	-0,086597	22,270000	51,490000
2,234032	43,641005	263,258	-0,057235	22,260000	51,475000
2,333001	113,266208	268,216	-0,027854	22,270000	51,475000
2,432039	185,203227	273,176	0,002504	22,260000	51,475000
2,531020	251,183677	278,138	0,030348	22,260000	51,475000
2,630050	322,226285	283,096	0,060328	22,270000	51,475000
2,666001	343,663220	288,051	0,069374	22,270000	51,490000
2,666014	341,060982	293,012	0,068276	22,280000	51,490000
2,606082	295,757276	297,973	0,049158	22,280000	51,515000
2,507038	219,807557	302,934	0,017107	22,280000	51,475000
2,408048	150,277233	307,892	-0,012235	22,270000	51,465000
2,309106	80,738809	312,848	-0,041580	22,270000	51,475000
2,210028	11,152945	317,812	-0,070945	22,280000	51,505000
2,111089	-57,923810	322,778	-0,100096	22,250000	51,460000
2,057053	-92,339538	327,615	-0,114619	22,260000	51,475000
2,156010	-18,364929	332,573	-0,083402	22,270000	51,490000
2,255077	55,539100	337,533	-0,052214	22,280000	51,515000
2,354033	125,901353	342,492	-0,022521	22,270000	51,490000
2,453022	193,284166	347,450	0,005914	22,260000	51,515000
2,552006	262,650187	352,405	0,035187	22,270000	51,505000
2,651004	331,812565	357,364	0,064373	22,270000	51,490000
2,750037	403,772725	362,323	0,094740	22,270000	51,505000
2,834012	461,578514	367,284	0,119134	22,280000	51,505000
2,834026	458,223027	372,244	0,117718	22,280000	51,465000
2,822049	448,684186	377,201	0,113693	22,270000	51,490000
2,723017	373,102414	382,165	0,081797	22,260000	51,465000
2,624093	299,645013	387,129	0,050798	22,270000	51,475000
2,525061	227,622371	392,090	0,020405	22,260000	51,475000
2,426012	155,230626	397,050	-0,010145	22,260000	51,490000
2,327063	87,015884	402,012	-0,038931	22,270000	51,515000
2,228098	18,631054	406,971	-0,067790	22,270000	51,475000
2,129032	-49,144004	411,929	-0,096391	22,270000	51,490000
2,123046	-51,237133	416,781	-0,097274	22,270000	51,475000
2,222115	24,265958	421,740	-0,065412	22,280000	51,515000
2,321112	95,763292	426,700	-0,035240	22,280000	51,505000
2,420055	166,462252	431,660	-0,005405	22,280000	51,475000
2,519068	237,340557	436,622	0,024506	22,270000	51,490000
2,618056	306,134988	441,583	0,053537	22,260000	51,490000
2,717136	375,893254	446,542	0,082975	22,270000	51,475000
2,816043	445,697803	451,502	0,112433	22,260000	51,490000
2,915030	518,849739	456,463	0,143303	22,270000	51,490000
3,002029	580,550207	461,420	0,169340	22,270000	51,505000
3,002069	577,767467	466,380	0,168166	22,280000	51,505000
2,993032	571,364272	471,337	0,165464	22,280000	51,505000
2,894015	492,372630	476,298	0,132129	22,280000	51,490000
2,795055	417,747751	481,256	0,100638	22,270000	51,505000
2,696076	344,024224	486,211	0,069526	22,260000	51,475000
2,597056	272,008525	491,168	0,039136	22,270000	51,515000
2,498089	201,129064	496,124	0,009225	22,270000	51,505000
2,399078	131,050291	501,081	-0,020349	22,270000	51,515000
2,300063	64,263366	506,041	-0,048533	22,260000	51,505000
2,201086	-3,355487	511,003	-0,077068	22,280000	51,490000
2,135086	-47,749741	515,835	-0,095802	22,280000	51,490000
2,234100	27,487226	520,798	-0,064052	22,270000	51,505000
2,333078	102,456911	525,758	-0,032415	22,270000	51,465000
2,432118	173,116530	530,720	-0,002597	22,280000	51,475000
2,531085	243,925411	535,678	0,027285	22,270000	51,450000
2,630084	313,918561	540,634	0,056822	22,270000	51,465000
2,729023	381,355756	545,591	0,085280	22,280000	51,475000
2,828051	451,890412	550,547	0,115046	22,280000	51,490000
2,927012	524,743826	555,509	0,145790	22,280000	51,505000
3,026054	595,787591	560,468	0,175771	22,270000	51,465000
3,125020	666,250509	565,434	0,205506	22,270000	51,515000
3,169948	699,381896	570,389	0,219487	22,270000	51,490000
3,170007	697,469268	575,351	0,218680	22,280000	51,475000
3,119004	658,922819	580,313	0,202414	22,270000	51,490000
3,019992	580,111680	585,267	0,169155	22,280000	51,505000
2,921038	507,046523	590,226	0,138322	22,270000	51,505000
2,822032	432,264283	595,183	0,106764	22,280000	51,475000
2,723007	359,974359	600,144	0,076257	22,250000	51,470000
2,623994	289,464001	605,103	0,046502	22,270000	51,490000
2,525051	218,976785	610,062	0,016756	22,270000	51,490000
2,426079	146,154612	615,026	-0,013975	22,280000	51,465000
2,327043	77,031574	619,984	-0,043145	22,270000	51,465000
2,228059	8,629388	624,942	-0,072010	22,270000	51,515000
2,192070	-13,199793	629,781	-0,081222	22,280000	51,515000
2,291061	66,276659	634,739	-0,047683	22,270000	51,450000
2,390107	138,159295	639,702	-0,017349	22,270000	51,505000
2,489073	211,146929	644,664	0,013452	22,260000	51,505000
2,588104	281,626046	649,625	0,043194	22,280000	51,490000
2,687088	349,337465	654,585	0,071769	22,280000	51,475000
2,786066	421,164562	659,546	0,102080	22,270000	51,490000
2,885004	492,639912	664,504	0,132242	22,280000	51,505000
2,984053	563,252092	669,464	0,162041	22,270000	51,475000
3,083033	634,483301	674,428	0,192100	22,270000	51,475000
3,181995	709,437944	679,386	0,223731	22,270000	51,490000
3,280978	780,677253	684,351	0,253794	22,250000	51,470000
3,337981	821,136330	689,309	0,270868	22,270000	51,490000
3,337962	818,926337	694,266	0,269935	22,270000	51,475000
3,298958	788,860014	699,226	0,257247	22,270000	51,490000
3,199996	709,579106	704,186	0,223791	22,260000	51,475000
3,101042	637,563407	709,147	0,193400	22,270000	51,475000
3,002044	563,463835	714,105	0,162130	22,270000	51,475000
2,903026	490,389422	719,065	0,131292	22,270000	51,475000
2,804075	417,481626	724,023	0,100525	22,270000	51,515000
2,705067	343,569498	728,984	0,069334	22,280000	51,475000
2,606085	271,200894	733,940	0,038795	22,260000	51,490000
2,507064	202,721184	738,901	0,009896	22,270000	51,490000
2,408090	131,104673	743,860	-0,020326	22,270000	51,490000
2,309042	63,721860	748,813	-0,048761	22,270000	51,505000
2,210094	-2,587196	753,769	-0,076744	22,280000	51,475000
2,111084	-71,506591	758,730	-0,105828	22,270000	51,475000
2,012118	-137,423402	763,692	-0,133645	22,270000	51,465000
1,913135	-204,587530	768,651	-0,161988	22,260000	51,465000
1,814066	-273,145920	773,605	-0,190919	22,270000	51,465000
1,715105	-338,287498	778,566	-0,218409	22,270000	51,475000
1,616111	-399,580680	783,525	-0,244275	22,270000	51,490000
1,517160	-461,555372	788,489	-0,270428	22,270000	51,490000
1,418146	-524,869946	793,451	-0,297147	22,280000	51,465000
1,319158	-577,517541	798,407	-0,319364	22,270000	51,490000
1,220093	-629,577347	803,360	-0,341333	22,260000	51,490000
1,121119	-673,454393	808,316	-0,359850	22,270000	51,475000
1,022070	-719,393328	813,271	-0,379236	22,260000	51,475000
0,923105	-743,353821	818,225	-0,389347	22,270000	51,475000
0,824143	-0,321664	823,183	-0,075788	22,280000	51,475000
0,725139	0,046283	828,140	-0,075632	22,270000	51,505000
0,626111	-0,094879	833,098	-0,075692	22,270000	51,465000
0,527145	0,328606	838,055	-0,075513	22,280000	51,475000
0,428092	-0,063639	843,012	-0,075679	22,270000	51,475000
0,329138	0,093722	847,971	-0,075612	22,270000	51,465000
0,326145	0,179345	848,122	-0,075576	22,270000	51,465000

X-Pos [um]	Y-Pos [um]
0,000000	0,001034

POC
2,152123
0,748247	-0,024298	5,889	-0,075675	22,280000	51,465000
0,847257	0,116864	10,850	-0,075616	22,280000	51,465000
0,946267	-0,063639	15,807	-0,075692	22,270000	51,465000
1,045284	-0,219842	20,764	-0,075758	22,280000	51,475000
1,144225	-0,142319	25,723	-0,075725	22,280000	51,465000
1,243228	0,023141	30,683	-0,075655	22,270000	51,450000
1,342208	0,046283	35,641	-0,075646	22,280000	51,465000
1,441203	0,006942	40,604	-0,075662	22,270000	51,490000
1,540202	-0,196701	45,564	-0,075748	22,280000	51,490000
1,639208	0,069424	50,525	-0,075636	22,280000	51,475000
1,738203	-0,275381	55,483	-0,075781	22,270000	51,465000
1,837165	-195,605237	60,444	-0,158210	22,260000	51,465000
1,936195	-141,499741	65,403	-0,135378	22,270000	51,465000
2,035200	-80,817489	70,361	-0,109770	22,270000	51,505000
2,134199	-14,163627	75,322	-0,081642	22,260000	51,475000
2,233212	51,362096	80,283	-0,053990	22,270000	51,475000
2,320185	110,506609	85,242	-0,029031	22,280000	51,465000
2,320174	106,674411	90,201	-0,030648	22,270000	51,475000
2,311137	97,565999	95,161	-0,034492	22,280000	51,490000
2,212121	23,763792	100,123	-0,065637	22,270000	51,465000
2,272125	70,572840	104,967	-0,045883	22,260000	51,465000
2,371138	140,157546	109,924	-0,016519	22,270000	51,450000
2,470175	208,622214	114,882	0,012374	22,270000	51,475000
2,488162	220,073682	119,842	0,017206	22,280000	51,490000
2,488202	217,668145	124,799	0,016191	22,270000	51,450000
2,410166	158,256350	129,757	-0,008881	22,280000	51,490000
2,311208	87,306307	134,719	-0,038822	22,270000	51,475000
2,257166	48,594398	139,558	-0,055158	22,280000	51,465000
2,356158	123,643920	144,517	-0,023487	22,270000	51,435000
2,455200	195,211835	149,473	0,006714	22,260000	51,475000
2,554132	264,852081	154,435	0,036103	22,270000	51,490000
2,653203	332,971943	159,391	0,064849	22,270000	51,475000
2,656128	333,513450	164,347	0,065078	22,260000	51,475000
2,656159	331,796366	169,301	0,064353	22,270000	51,505000
2,563146	262,172319	174,263	0,034972	22,270000	51,465000
2,464180	186,613689	179,222	0,003086	22,280000	51,515000
2,365225	117,756776	184,179	-0,025972	22,270000	51,450000
2,287181	62,851748	189,023	-0,049142	22,280000	51,490000
2,386157	139,303632	193,980	-0,016879	22,280000	51,465000
2,485256	209,618446	198,941	0,012794	22,270000	51,475000
2,584146	281,053299	203,897	0,042939	22,280000	51,435000
2,683193	351,721018	208,852	0,072761	22,260000	51,475000
2,782118	422,325098	213,809	0,102556	22,270000	51,490000
2,824177	451,294524	218,767	0,114781	22,270000	51,490000
2,824154	449,303216	223,728	0,113941	22,280000	51,465000
2,770146	408,553716	228,689	0,096745	22,270000	51,475000
2,671183	331,499000	233,649	0,064228	22,270000	51,450000
2,572146	260,322173	238,605	0,034191	22,290000	51,465000
2,473186	189,004184	243,560	0,004095	22,270000	51,490000
2,374163	119,144096	248,522	-0,025386	22,270000	51,435000
2,362126	111,416062	253,359	-0,028647	22,270000	51,465000
2,461173	188,972943	258,315	0,004082	22,280000	51,465000
2,560126	258,957994	263,272	0,033615	22,260000	51,450000
2,659188	330,714511	268,229	0,063896	22,270000	51,490000
2,758237	402,275483	273,184	0,094095	22,280000	51,450000
2,857104	475,685445	278,147	0,125074	22,260000	51,450000
2,956171	544,636080	283,105	0,154171	22,280000	51,450000
2,992136	570,768383	288,061	0,165199	22,280000	51,475000
2,992113	568,699552	293,021	0,164326	22,270000	51,465000
2,932148	523,998676	297,975	0,145462	22,270000	51,465000
2,833123	448,017717	302,937	0,113398	22,270000	51,515000
2,734218	371,895596	307,897	0,081275	22,270000	51,475000
2,635142	300,695627	312,855	0,051229	22,270000	51,490000
2,536135	228,954152	317,811	0,020954	22,260000	51,475000
2,437154	157,401279	322,767	-0,009242	22,260000	51,465000
2,383195	121,683853	327,606	-0,024314	22,270000	51,435000
2,482163	197,351248	332,567	0,007617	22,270000	51,465000
2,581147	270,456902	337,523	0,038468	22,280000	51,465000
2,680175	344,948719	342,482	0,069903	22,270000	51,475000
2,779163	416,673995	347,444	0,100171	22,270000	51,435000
2,878165	488,642254	352,401	0,130542	22,280000	51,475000
2,977128	558,070757	357,357	0,159841	22,280000	51,465000
3,076143	630,242660	362,319	0,190297	22,270000	51,450000
3,160090	693,361689	367,279	0,216934	22,260000	51,450000
3,160101	690,195960	372,240	0,215598	22,260000	51,475000
3,148103	680,860763	377,198	0,211658	22,270000	51,490000
3,049147	604,777982	382,157	0,179551	22,270000	51,450000
2,950166	530,058223	387,119	0,148020	22,270000	51,465000
2,851158	453,622538	392,077	0,115764	22,280000	51,475000
2,752198	380,509941	397,037	0,084910	22,270000	51,475000
2,653126	307,953893	401,991	0,054292	22,270000	51,490000
2,554130	239,449885	406,953	0,025383	22,250000	51,485000
2,455173	166,854497	411,909	-0,005252	22,270000	51,465000
2,449181	167,685269	416,748	-0,004902	22,270000	51,490000
2,548118	241,221351	421,705	0,026130	22,270000	51,435000
2,647137	316,527742	426,663	0,057910	22,280000	51,450000
2,746125	388,747084	431,623	0,088386	22,260000	51,475000
2,845104	462,025141	436,588	0,119310	22,280000	51,450000
2,944203	534,924837	441,549	0,150073	22,270000	51,490000
3,043172	604,706244	446,506	0,179521	22,270000	51,465000
3,142148	676,863105	451,459	0,209971	22,270000	51,425000
3,241061	749,662137	456,417	0,240692	22,280000	51,515000
3,328042	814,826857	461,379	0,268192	22,260000	51,465000
3,328095	811,950394	466,337	0,266978	22,280000	51,435000
3,319084	803,470268	471,294	0,263399	22,270000	51,475000
3,220124	728,468185	476,255	0,231749	22,270000	51,450000
3,121140	653,199978	481,217	0,199985	22,270000	51,425000
3,022161	576,450728	486,177	0,167597	22,270000	51,450000
2,923158	503,024567	491,134	0,136611	22,270000	51,450000
2,824123	432,420487	496,094	0,106816	22,280000	51,505000
2,725158	357,731968	501,054	0,075298	22,270000	51,490000
2,626238	286,124713	506,012	0,045080	22,270000	51,490000
2,527166	216,366447	510,975	0,015642	22,270000	51,475000
2,461176	170,443711	515,816	-0,003738	22,270000	51,450000
2,560178	245,562657	520,772	0,027962	22,270000	51,465000
2,659134	320,697803	525,724	0,059669	22,260000	51,490000
2,758092	395,503184	530,683	0,091237	22,270000	51,490000
2,857098	466,069081	535,643	0,121016	22,270000	51,475000
2,956130	538,789433	540,602	0,151704	22,280000	51,465000
3,055081	611,502842	545,564	0,182389	22,270000	51,475000
3,154080	684,434936	550,525	0,213167	22,270000	51,475000
3,253051	759,506443	555,489	0,244847	22,270000	51,450000
3,352066	832,713918	560,448	0,275740	22,270000	51,465000
3,450972	903,835206	565,402	0,305753	22,280000	51,475000
3,495989	936,700468	570,363	0,319623	22,270000	51,465000
3,495989	934,763542	575,320	0,318805	22,280000	51,465000
3,444995	894,084623	580,282	0,301639	22,280000	51,435000
3,346015	819,474785	585,241	0,270153	22,280000	51,465000
3,247041	742,764875	590,201	0,237782	22,270000	51,465000
3,148131	667,081281	595,159	0,205843	22,260000	51,410000
3,049102	595,434686	600,117	0,175608	22,270000	51,435000
2,950103	522,126546	605,075	0,144672	22,270000	51,450000
2,851078	449,523058	610,039	0,114034	22,270000	51,450000
2,752138	377,241234	614,995	0,083531	22,280000	51,465000
2,653135	303,156704	619,950	0,052267	22,280000	51,475000
2,554123	232,097897	624,915	0,022280	22,280000	51,465000
[...]
2,380035	142,987726	109,895	-0,015255	22,280000	51,410000
2,479070	212,251925	114,852	0,013975	22,270000	51,385000
2,497026	220,646429	119,809	0,017517	22,280000	51,400000
2,497086	219,219768	124,767	0,016915	22,260000	51,385000
2,419084	161,383896	129,723	-0,007492	22,270000	51,425000
2,320063	86,358672	134,686	-0,039152	22,270000	51,385000
2,266080	49,904195	139,530	-0,054536	22,270000	51,410000
2,365094	124,788257	144,488	-0,022935	22,270000	51,400000
2,464057	195,141254	149,446	0,006754	22,270000	51,410000
2,563015	267,713502	154,403	0,037379	22,280000	51,410000
2,662066	335,895846	159,362	0,066152	22,270000	51,425000
2,665063	335,912045	164,324	0,066159	22,270000	51,425000
2,665102	334,203060	169,279	0,065438	22,280000	51,370000
2,572049	262,500926	174,245	0,035180	22,260000	51,400000
2,473065	191,120455	179,200	0,005057	22,270000	51,410000
2,374103	120,916719	184,156	-0,024569	22,270000	51,370000
2,296131	62,938527	189,005	-0,049036	22,270000	51,400000
2,395047	141,176920	193,964	-0,016019	22,280000	51,400000
2,494093	212,142004	198,921	0,013928	22,270000	51,410000
2,593075	285,451301	203,884	0,044865	22,280000	51,400000
2,692100	356,188444	208,842	0,074716	22,270000	51,400000
2,791033	426,455819	213,805	0,104369	22,270000	51,400000
2,833057	454,438268	218,762	0,116177	22,270000	51,370000
2,833063	452,383322	223,717	0,115310	22,280000	51,400000
2,779058	411,768041	228,678	0,098170	22,280000	51,400000
2,680048	336,805298	233,640	0,066536	22,270000	51,410000
2,581097	263,919487	238,598	0,035778	22,260000	51,385000
2,482063	189,929836	243,557	0,004555	22,280000	51,425000
2,383043	121,229127	248,517	-0,024437	22,270000	51,400000
2,371064	114,096981	253,357	-0,027447	22,270000	51,385000
2,470057	190,572006	258,319	0,004826	22,270000	51,400000
2,569031	263,723943	263,282	0,035696	22,270000	51,385000
2,668069	333,270466	268,234	0,065044	22,270000	51,400000
2,767077	407,269374	273,194	0,096272	22,270000	51,410000
2,866106	477,857255	278,149	0,126060	22,270000	51,400000
2,965039	548,595555	283,108	0,155912	22,270000	51,410000
3,000982	573,982709	288,067	0,166625	22,270000	51,425000
3,001049	572,469268	293,023	0,165986	22,280000	51,400000
2,941053	527,071840	297,988	0,146829	22,280000	51,360000
2,842040	451,498167	302,947	0,114937	22,280000	51,385000
2,743052	378,072006	307,904	0,083951	22,260000	51,410000
2,644098	303,798874	312,865	0,052607	22,270000	51,400000
2,545129	232,121038	317,824	0,022359	22,260000	51,425000
2,446086	161,768041	322,784	-0,007330	22,270000	51,400000
2,392109	124,019966	327,624	-0,023259	22,270000	51,360000
2,491112	200,534332	332,578	0,009030	22,270000	51,385000
2,590042	273,513866	337,536	0,039827	22,270000	51,360000
2,689109	345,818831	342,493	0,070340	22,270000	51,400000
2,788052	418,061315	347,451	0,100826	22,270000	51,400000
2,887076	490,249417	352,407	0,131290	22,270000	51,425000
2,986034	564,788674	357,371	0,162745	22,280000	51,400000
3,084967	634,788766	362,328	0,192285	22,280000	51,385000
3,168981	697,406787	367,287	0,218710	22,270000	51,385000
3,169020	694,765208	372,245	0,217595	22,260000	51,400000
3,156967	683,745325	377,202	0,212945	22,260000	51,410000
3,057970	609,417811	382,163	0,181579	22,260000	51,400000
2,959021	533,922819	387,127	0,149720	22,270000	51,400000
2,860068	460,747741	392,118	0,118840	22,270000	51,385000
2,761033	386,937435	397,080	0,087692	22,270000	51,400000
2,662061	314,568831	402,036	0,057152	22,270000	51,425000
2,563022	242,482551	406,995	0,026732	22,270000	51,425000
2,464124	170,185686	411,958	-0,003777	22,280000	51,385000
2,458110	168,813407	416,834	-0,004356	22,270000	51,400000
2,557108	244,724943	421,796	0,027678	22,260000	51,410000
2,656123	317,532074	426,754	0,058403	22,270000	51,410000
2,755020	392,964585	431,713	0,090235	22,250000	51,365000
2,853999	463,890329	436,672	0,120166	22,270000	51,410000
2,953055	535,779908	441,634	0,150503	22,270000	51,400000
3,051987	608,429678	446,597	0,181162	22,270000	51,400000
3,151048	683,471101	451,558	0,212829	22,270000	51,425000
3,250005	753,628555	456,519	0,242436	22,270000	51,360000
3,337006	818,934436	461,477	0,269995	22,260000	51,410000
3,336993	816,536998	466,436	0,268983	22,270000	51,410000
3,327950	810,360588	471,399	0,266376	22,270000	51,400000
3,229016	730,914220	476,360	0,232850	22,270000	51,385000
3,130081	657,519300	481,322	0,201877	22,270000	51,385000
3,031030	581,216677	486,285	0,169678	22,270000	51,385000
2,932021	509,781824	491,244	0,139532	22,270000	51,410000
2,833026	434,607339	496,208	0,107809	22,270000	51,385000
2,734056	364,018300	501,165	0,078020	22,270000	51,400000
2,635082	291,486550	506,126	0,047412	22,270000	51,400000
2,536127	220,826931	511,084	0,017593	22,250000	51,395000
2,470101	173,963502	515,931	-0,002183	22,270000	51,385000
2,569103	249,239809	520,894	0,029583	22,270000	51,385000
2,668071	324,813481	525,854	0,061476	22,270000	51,410000
2,767049	397,760617	530,815	0,092259	22,280000	51,410000
2,866067	471,093056	535,772	0,123206	22,270000	51,370000
2,964998	543,358681	540,730	0,153702	22,270000	51,370000
3,064033	615,335040	545,688	0,184076	22,270000	51,400000
3,163036	688,393254	550,648	0,214906	22,270000	51,370000
3,262033	761,184186	555,606	0,245624	22,280000	51,400000
3,360969	836,546116	560,560	0,277427	22,260000	51,385000
3,459895	909,494409	565,518	0,308211	22,270000	51,400000
3,504979	940,588205	570,474	0,321333	22,270000	51,385000
3,504943	938,565656	575,439	0,320479	22,270000	51,385000
3,453957	899,666303	580,398	0,304063	22,280000	51,425000
3,355013	823,214418	585,354	0,271801	22,270000	51,370000
3,255980	746,440869	590,314	0,239402	22,270000	51,410000
3,157029	671,706069	595,272	0,207864	22,260000	51,385000
3,058070	597,143670	600,226	0,176399	22,270000	51,400000
2,959071	524,407120	605,186	0,145704	22,270000	51,425000
2,860067	451,608088	610,141	0,114983	22,270000	51,400000
2,761073	380,854747	615,101	0,085125	22,280000	51,400000
2,662063	307,522308	620,056	0,054179	22,270000	51,385000
2,563089	237,051290	625,015	0,024440	22,270000	51,410000
2,527119	211,883979	629,855	0,013819	22,280000	51,385000
2,626081	291,031824	634,810	0,047220	22,270000	51,385000
2,725087	365,170736	639,773	0,078506	22,260000	51,400000
2,824052	436,707411	644,732	0,108695	22,270000	51,400000
2,923044	512,132979	649,694	0,140524	22,270000	51,410000
3,022067	583,521549	654,652	0,170650	22,270000	51,410000
3,120994	658,115188	659,612	0,202129	22,280000	51,360000
3,220019	728,445044	664,570	0,231808	22,270000	51,400000
3,318925	803,353405	669,528	0,263419	22,270000	51,400000
3,417985	875,015042	674,489	0,293661	22,270000	51,400000
3,516939	949,107672	679,443	0,324928	22,270000	51,425000
3,615895	1021,342056	684,402	0,355411	22,270000	51,385000
3,672843	1064,583873	689,359	0,373659	22,270000	51,400000
3,672904	1062,523141	694,320	0,372789	22,270000	51,400000
3,633901	1032,770383	699,280	0,360233	22,270000	51,425000
3,534944	955,566406	704,239	0,327653	22,280000	51,385000
3,435944	878,574172	709,200	0,295163	22,270000	51,410000
3,337035	803,258525	714,157	0,263379	22,270000	51,410000
3,238042	730,608755	719,118	0,232721	22,270000	51,400000
3,138997	654,549115	724,074	0,200624	22,280000	51,425000
3,040110	581,993067	729,031	0,170005	22,270000	51,410000
2,941017	508,903612	733,984	0,139162	22,260000	51,400000
2,842052	437,593722	738,943	0,109069	22,270000	51,370000
2,743058	364,661628	743,901	0,078292	22,270000	51,410000
2,644045	294,213751	748,863	0,048563	22,270000	51,385000
2,545061	221,508442	753,824	0,017881	22,260000	51,385000
2,446068	153,467260	758,779	-0,010833	22,270000	51,400000
2,347107	83,592130	763,739	-0,040320	22,270000	51,400000
2,248063	11,881896	768,693	-0,070582	22,270000	51,385000
2,149167	-56,856996	773,648	-0,099589	22,280000	51,425000
2,050133	-122,499583	778,604	-0,127291	22,270000	51,400000
1,951116	-190,055956	783,561	-0,155799	22,270000	51,425000
1,852109	-259,052873	788,519	-0,184916	22,270000	51,400000
1,753152	-319,390320	793,478	-0,210378	22,280000	51,400000
1,654120	-382,932835	798,436	-0,237193	22,270000	51,370000
1,555154	-448,105654	803,396	-0,264696	22,270000	51,400000
1,456200	-507,383229	808,358	-0,289711	22,280000	51,410000
1,357148	-567,179169	813,315	-0,314945	22,270000	51,410000
1,258170	-624,615855	818,275	-0,339184	22,270000	51,370000
1,159160	-666,542089	823,231	-0,356876	22,270000	51,370000
1,060138	-710,481617	828,192	-0,375419	22,270000	51,410000
0,961115	-740,109412	833,149	-0,387922	22,270000	51,425000
0,862177	-711,742817	838,112	-0,375951	22,270000	51,425000
0,763122	0,054382	843,074	-0,075573	22,270000	51,400000
0,664164	0,101822	848,029	-0,075553	22,260000	51,410000
0,661152	0,234884	848,179	-0,075497	22,260000	51,410000