File: Nanoindentation Datenauswertung/data/PDMS/14.09/APM-PDMS-150ms,4um,20nms,9cycles,1,5um offset,75%,5x1-7
Quasi static measurement routine
Tip parameters (shape,radius, material...)
14.09.2022

Piezo position[nm]	MEMS displ.[nm]	Time[ms]	Cap [pf]	Temp [°C]	Rh [%]
eoh

X-Pos [um]	Y-Pos [um]
0,000489	0,000898

POC
1,835990
0,420076	0,078680	5,266	-0,075642	22,280000	51,370000
0,507077	0,188602	9,625	-0,075596	22,270000	51,410000
0,594203	0,141162	13,983	-0,075616	22,280000	51,400000
0,681072	0,133062	18,340	-0,075619	22,270000	51,385000
0,768037	-0,195544	22,702	-0,075758	22,280000	51,410000
0,855019	-0,062481	27,062	-0,075702	22,270000	51,385000
0,942120	-0,101822	31,422	-0,075718	22,260000	51,400000
1,029059	-0,141162	35,783	-0,075735	22,270000	51,370000
1,116063	-0,078680	40,146	-0,075708	22,270000	51,410000
1,203087	-0,109921	44,506	-0,075722	22,280000	51,400000
1,290070	0,024298	48,864	-0,075665	22,270000	51,400000
1,377060	-0,124963	53,223	-0,075728	22,270000	51,400000
1,464095	-0,399187	57,580	-0,075844	22,260000	51,425000
1,551035	-0,494067	61,940	-0,075884	22,270000	51,410000
1,638093	-0,878212	66,298	-0,076046	22,270000	51,360000
1,725079	-0,705809	70,655	-0,075973	22,270000	51,370000
1,812015	0,627129	75,023	-0,075411	22,280000	51,410000
1,899017	-160,991651	79,380	-0,143614	22,270000	51,385000
1,985988	-108,885562	83,741	-0,121625	22,280000	51,400000
2,072995	-50,445701	88,099	-0,096963	22,270000	51,385000
2,115011	-25,786341	92,458	-0,086557	22,270000	51,425000
2,115017	-28,436019	96,819	-0,087675	22,270000	51,425000
2,097016	-43,688444	101,176	-0,094112	22,280000	51,385000
2,079003	-55,767041	105,420	-0,099209	22,270000	51,385000
2,165969	6,294431	109,782	-0,073019	22,270000	51,400000
2,252982	64,890495	114,144	-0,048292	22,280000	51,400000
2,340017	126,003175	118,501	-0,022502	22,260000	51,370000
2,394002	160,052114	122,858	-0,008133	22,280000	51,385000
2,393984	157,221934	127,219	-0,009328	22,280000	51,385000
2,387981	153,153695	131,579	-0,011044	22,260000	51,410000
2,301030	84,838289	135,940	-0,039874	22,270000	51,370000
2,294984	81,099813	140,183	-0,041451	22,270000	51,400000
2,382014	145,128295	144,544	-0,014431	22,270000	51,400000
2,468962	207,227951	148,900	0,011775	22,280000	51,400000
2,555990	268,373028	153,257	0,037578	22,270000	51,370000
2,642958	328,497575	157,619	0,062951	22,280000	51,400000
2,673004	348,202384	161,978	0,071266	22,270000	51,370000
2,672997	345,897512	166,341	0,070293	22,270000	51,385000
2,643013	322,140662	170,697	0,060268	22,260000	51,385000
2,556043	257,964075	175,053	0,033186	22,270000	51,410000
2,468950	191,317156	179,412	0,005061	22,280000	51,400000
2,540968	246,097221	183,662	0,028178	22,270000	51,370000
2,628001	310,705393	188,019	0,055442	22,270000	51,400000
2,715009	376,748325	192,378	0,083312	22,280000	51,385000
2,802012	436,723610	196,739	0,108622	22,270000	51,400000
2,888982	499,129887	201,099	0,134958	22,270000	51,385000
2,951891	545,343047	205,458	0,154459	22,270000	51,410000
2,951987	542,686426	209,818	0,153338	22,280000	51,400000
2,951956	541,785073	214,178	0,152958	22,270000	51,370000
2,867982	478,147678	218,536	0,126103	22,270000	51,410000
2,780961	412,372029	222,894	0,098346	22,260000	51,400000
2,693900	347,520873	227,247	0,070979	22,270000	51,410000
2,735982	378,072006	231,494	0,083871	22,280000	51,410000
2,822977	446,326089	235,854	0,112674	22,270000	51,385000
2,909954	509,758683	240,216	0,139443	22,270000	51,400000
2,996989	575,903436	244,578	0,167356	22,270000	51,410000
3,083928	637,407203	248,937	0,193311	22,270000	51,385000
3,170906	701,185760	253,295	0,220225	22,270000	51,385000
3,230888	745,979201	257,658	0,239128	22,260000	51,385000
3,230925	743,948552	262,013	0,238271	22,270000	51,400000
3,230905	743,009016	266,366	0,237875	22,270000	51,410000
3,143934	675,711826	270,720	0,209475	22,260000	51,400000
3,056961	609,386571	275,080	0,181486	22,270000	51,385000
2,969964	544,331772	279,439	0,154033	22,260000	51,370000
2,882912	479,339455	283,800	0,126606	22,270000	51,410000
2,966993	541,918135	288,042	0,153014	22,260000	51,400000
3,053941	610,053040	292,400	0,181767	22,270000	51,400000
3,140916	674,857912	296,759	0,209115	22,270000	51,370000
3,227922	738,847055	301,120	0,236118	22,270000	51,370000
3,314915	803,517708	305,481	0,263409	22,270000	51,385000
3,401875	867,757933	309,838	0,290519	22,260000	51,400000
3,488889	931,966917	314,195	0,317615	22,270000	51,370000
3,509849	946,953218	318,554	0,323939	22,260000	51,400000
3,509830	945,401594	322,914	0,323284	22,270000	51,370000
3,470863	913,437685	327,274	0,309795	22,280000	51,400000
3,383908	848,530991	331,629	0,282405	22,270000	51,385000
3,296976	781,814648	335,984	0,254250	22,280000	51,410000
3,209900	713,788507	340,344	0,225543	22,270000	51,385000
3,122924	648,364605	344,703	0,197935	22,280000	51,410000
3,140922	663,367104	348,958	0,204266	22,280000	51,385000
3,227881	731,910452	353,320	0,233191	22,270000	51,385000
3,314921	799,324506	357,679	0,261640	22,270000	51,400000
3,401922	865,132553	362,034	0,289411	22,270000	51,400000
3,488853	928,330263	366,394	0,316080	22,270000	51,410000
3,575836	993,158277	370,752	0,343438	22,280000	51,370000
3,662844	1058,651603	375,113	0,371076	22,270000	51,400000
3,749865	1125,109921	379,468	0,399121	22,280000	51,425000
3,788819	1152,315980	383,826	0,410602	22,270000	51,385000
3,788878	1150,096731	388,185	0,409666	22,270000	51,385000
3,767844	1132,916636	392,541	0,402416	22,270000	51,425000
3,680833	1065,627546	396,901	0,374020	22,280000	51,385000
3,593824	996,708151	401,259	0,344936	22,270000	51,410000
3,506827	932,358005	405,617	0,317780	22,280000	51,400000
3,419880	866,621695	409,976	0,290039	22,280000	51,370000
3,332904	801,613179	414,332	0,262605	22,280000	51,385000
3,350931	816,481459	418,590	0,268880	22,270000	51,400000
3,437862	882,140245	422,946	0,296588	22,270000	51,400000
3,524874	949,617937	427,302	0,325063	22,270000	51,385000
3,611863	1016,396762	431,656	0,353244	22,260000	51,385000
3,698851	1080,746908	436,016	0,380400	22,270000	51,400000
3,785825	1146,939101	440,372	0,408333	22,270000	51,410000
3,872823	1211,672236	444,733	0,435650	22,270000	51,410000
3,959883	1277,268541	449,088	0,463332	22,280000	51,410000
4,046800	1341,625629	453,449	0,490491	22,280000	51,360000
4,067792	1357,435760	457,805	0,497163	22,280000	51,370000
4,067784	1355,585614	462,166	0,496382	22,260000	51,410000
4,028753	1323,473600	466,522	0,482831	22,270000	51,410000
3,941851	1255,141995	470,882	0,453995	22,270000	51,370000
3,854789	1187,445618	475,242	0,425427	22,270000	51,410000
3,767794	1123,581439	479,594	0,398476	22,270000	51,385000
3,680804	1054,584521	483,952	0,369359	22,270000	51,370000
3,593841	988,799615	488,310	0,341598	22,280000	51,400000
3,509819	926,072830	492,673	0,315127	22,270000	51,385000
3,596838	996,653769	496,941	0,344913	22,260000	51,400000
3,683876	1062,452560	501,297	0,372680	22,280000	51,400000
3,770801	1129,138820	505,654	0,400821	22,270000	51,385000
3,857852	1195,988226	510,010	0,429032	22,270000	51,400000
3,944832	1261,435269	514,367	0,456650	22,270000	51,400000
4,031847	1327,016532	518,723	0,484326	22,280000	51,370000
4,118872	1392,118770	523,078	0,511799	22,280000	51,410000
4,205790	1460,347397	527,433	0,540591	22,280000	51,385000
4,292752	1524,047273	531,791	0,567473	22,270000	51,370000
4,346738	1564,749334	536,149	0,584649	22,270000	51,400000
4,346746	1562,946627	540,504	0,583888	22,280000	51,400000
4,340735	1556,809556	544,861	0,581298	22,270000	51,410000
4,253701	1489,834031	549,219	0,553035	22,270000	51,370000
4,166819	1420,045681	553,578	0,523584	22,270000	51,410000
4,079817	1353,085197	557,937	0,495327	22,270000	51,385000
3,992781	1286,298273	562,293	0,467143	22,270000	51,400000
3,905836	1218,750000	566,646	0,438637	22,280000	51,410000
3,818870	1155,348647	571,005	0,411882	22,270000	51,410000
3,731810	1089,611180	575,363	0,384141	22,280000	51,385000
3,644881	1021,781741	579,721	0,355517	22,270000	51,400000
3,557917	956,342797	584,075	0,327901	22,270000	51,400000
3,470967	893,474850	588,433	0,301371	22,280000	51,400000
3,383904	828,811139	592,789	0,274083	22,270000	51,400000
3,296973	764,242308	597,143	0,246835	22,260000	51,410000
3,209896	699,406194	601,504	0,219474	22,270000	51,435000
3,123006	633,433844	605,864	0,191634	22,270000	51,400000
3,035956	572,030741	610,223	0,165722	22,260000	51,385000
2,948939	508,802947	614,580	0,139040	22,270000	51,385000
2,861993	444,232959	618,938	0,111791	22,270000	51,425000
2,774986	381,286332	623,294	0,085228	22,270000	51,400000
2,687973	317,555215	627,652	0,058333	22,270000	51,360000
2,600950	255,549282	632,009	0,032167	22,270000	51,385000
2,514023	194,177420	636,365	0,006268	22,270000	51,410000
2,427023	131,419394	640,722	-0,020216	22,260000	51,425000
2,340001	69,953810	645,080	-0,046155	22,270000	51,400000
2,253035	12,415303	649,438	-0,070436	22,260000	51,425000
2,166037	-50,421403	653,792	-0,096953	22,270000	51,385000
2,079053	-106,863013	658,149	-0,120771	22,260000	51,385000
1,992053	-166,243567	662,508	-0,145830	22,280000	51,400000
1,904978	-221,673902	666,862	-0,169222	22,270000	51,425000
1,817990	-277,542765	671,219	-0,192798	22,260000	51,400000
1,731073	-334,900770	675,572	-0,217003	22,260000	51,410000
1,644060	-391,483542	679,930	-0,240881	22,260000	51,425000
1,557054	-443,550291	684,288	-0,262854	22,260000	51,400000
1,470051	-493,400104	688,640	-0,283890	22,270000	51,385000
1,383035	-543,382979	692,997	-0,304983	22,270000	51,400000
1,296038	-591,907953	697,355	-0,325460	22,270000	51,410000
1,209065	-636,991817	701,712	-0,344486	22,280000	51,385000
1,122083	-679,128638	706,071	-0,362268	22,270000	51,345000
1,035049	-714,932844	710,428	-0,377377	22,270000	51,385000
0,948077	-731,001000	714,782	-0,384158	22,280000	51,400000
0,861114	-700,989059	719,141	-0,371493	22,260000	51,410000
0,774064	0,901353	723,502	-0,075295	22,270000	51,385000
0,687131	0,838872	727,858	-0,075321	22,280000	51,400000
0,600061	0,768291	732,216	-0,075351	22,250000	51,395000
0,513090	0,822673	736,571	-0,075328	22,260000	51,400000
0,426070	1,011274	740,928	-0,075249	22,270000	51,370000
0,339061	0,635228	745,290	-0,075407	22,280000	51,370000
0,336086	0,776390	745,440	-0,075348	22,280000	51,370000

X-Pos [um]	Y-Pos [um]
0,000193	0,000875

POC
2,158159
0,742276	-0,234884	5,248	-0,075397	22,280000	51,400000
0,829262	-0,164303	9,604	-0,075368	22,280000	51,400000
0,916269	-0,187444	13,964	-0,075377	22,260000	51,400000
1,003258	-0,249926	18,325	-0,075404	22,280000	51,360000
1,090257	-0,234884	22,681	-0,075397	22,270000	51,410000
1,177253	-0,179345	27,042	-0,075374	22,270000	51,385000
1,264272	-0,172403	31,397	-0,075371	22,280000	51,370000
1,351254	-0,313564	35,754	-0,075431	22,270000	51,385000
1,438258	-0,124963	40,113	-0,075351	22,270000	51,370000
1,525242	-0,210586	44,470	-0,075387	22,270000	51,370000
1,612255	-0,289266	48,824	-0,075420	22,270000	51,385000
1,699212	-0,391088	53,182	-0,075463	22,270000	51,370000
1,786170	-2,789683	57,535	-0,076476	22,270000	51,385000
1,873172	-182,091880	61,891	-0,152141	22,270000	51,410000
1,960128	-131,803540	66,249	-0,130919	22,270000	51,400000
2,047193	-73,715427	70,609	-0,106406	22,260000	51,400000
2,134184	-17,941443	74,968	-0,082870	22,270000	51,370000
2,221217	41,353488	79,324	-0,057847	22,270000	51,360000
2,308167	97,872621	83,685	-0,033996	22,260000	51,400000
2,395191	156,446701	88,044	-0,009278	22,270000	51,385000
2,437148	183,644661	92,399	0,002200	22,270000	51,370000
2,437172	180,924402	96,760	0,001052	22,260000	51,400000
2,419174	167,780148	101,114	-0,004495	22,260000	51,410000
2,401135	151,485208	105,366	-0,011372	22,270000	51,400000
2,488157	214,792839	109,727	0,015344	22,260000	51,400000
2,575183	276,618271	114,086	0,041435	22,260000	51,385000
2,662142	336,594713	118,449	0,066745	22,260000	51,360000
2,716156	374,380970	122,804	0,082690	22,280000	51,400000
2,716090	371,982376	127,161	0,081678	22,270000	51,400000
2,710063	368,486884	131,521	0,080203	22,270000	51,410000
2,623181	299,066480	135,883	0,050908	22,280000	51,410000
2,617130	294,253092	140,123	0,048876	22,260000	51,425000
2,704142	361,965668	144,479	0,077451	22,280000	51,425000
2,791139	424,426327	148,840	0,103810	22,270000	51,425000
2,878161	487,334771	153,196	0,130357	22,280000	51,385000
2,965167	549,450626	157,554	0,156570	22,270000	51,410000
2,995177	571,161785	161,910	0,165732	22,260000	51,370000
2,995136	569,045514	166,268	0,164839	22,260000	51,360000
2,965123	546,589205	170,628	0,155362	22,270000	51,385000
2,878139	479,966584	174,987	0,127248	22,280000	51,385000
2,791181	414,221018	179,346	0,099503	22,270000	51,385000
2,863182	467,175235	183,589	0,121850	22,270000	51,400000
2,950113	533,085104	187,949	0,149664	22,260000	51,425000
3,037163	599,683427	192,308	0,177768	22,260000	51,400000
3,124129	664,864346	196,664	0,205274	22,270000	51,400000
3,211093	726,587955	201,028	0,231322	22,270000	51,385000
3,274101	773,945451	205,389	0,251307	22,270000	51,410000
3,274118	771,421894	209,752	0,250242	22,270000	51,410000
3,274073	770,215075	214,108	0,249732	22,280000	51,410000
3,190082	704,172143	218,463	0,221862	22,270000	51,400000
3,103143	637,713826	222,826	0,193817	22,270000	51,385000
3,016067	572,094379	227,185	0,166125	22,270000	51,370000
3,058153	605,930419	231,427	0,180404	22,270000	51,370000
3,145092	672,905945	235,784	0,208668	22,280000	51,370000
3,232108	736,793265	240,144	0,235628	22,270000	51,425000
3,319085	804,968667	244,507	0,264398	22,260000	51,400000
3,406046	867,122704	248,866	0,290627	22,280000	51,425000
3,493058	933,942026	253,224	0,318825	22,260000	51,370000
3,553021	976,807798	257,583	0,336915	22,270000	51,410000
3,552974	974,816490	261,938	0,336074	22,270000	51,410000
3,553033	973,696451	266,291	0,335602	22,270000	51,410000
3,465998	904,683335	270,649	0,306478	22,280000	51,370000
3,379076	840,301948	275,010	0,279309	22,260000	51,385000
3,292062	774,007933	279,363	0,251333	22,280000	51,385000
3,205131	709,015616	283,721	0,223906	22,280000	51,385000
3,289095	773,679326	287,964	0,251194	22,260000	51,400000
3,376061	840,764773	292,326	0,279504	22,270000	51,370000
3,463078	906,501083	296,682	0,307245	22,270000	51,385000
3,549987	970,074839	301,040	0,334073	22,270000	51,400000
3,637047	1035,953467	305,401	0,361874	22,260000	51,400000
3,724009	1100,640320	309,759	0,389172	22,260000	51,400000
3,811013	1165,005508	314,114	0,416334	22,260000	51,370000
3,831930	1180,986884	318,472	0,423078	22,270000	51,425000
3,831955	1179,356580	322,829	0,422390	22,270000	51,400000
3,792964	1147,072164	327,186	0,408766	22,270000	51,400000
3,705978	1081,194692	331,548	0,380966	22,270000	51,345000
3,618986	1011,679410	335,910	0,351630	22,260000	51,370000
3,532043	945,612180	340,273	0,323750	22,260000	51,370000
3,445062	879,632887	344,633	0,295907	22,270000	51,385000
3,463086	894,916553	348,891	0,302356	22,260000	51,400000
3,549999	962,236884	353,248	0,330766	22,270000	51,410000
3,636981	1031,627203	357,609	0,360048	22,260000	51,385000
3,724007	1095,450885	361,969	0,386982	22,280000	51,400000
3,810926	1161,173310	366,328	0,414717	22,280000	51,410000
3,897977	1226,589112	370,686	0,442322	22,270000	51,385000
3,985019	1294,528473	375,043	0,470993	22,270000	51,370000
4,071948	1359,826255	379,403	0,498548	22,280000	51,400000
4,110935	1387,400261	383,763	0,510185	22,260000	51,410000
4,110942	1385,722517	388,121	0,509477	22,270000	51,385000
4,089896	1367,781074	392,479	0,501905	22,280000	51,425000
4,002971	1298,885978	396,840	0,472832	22,270000	51,400000
3,916054	1233,690018	401,198	0,445319	22,260000	51,400000
3,829031	1166,220425	405,556	0,416847	22,270000	51,370000
3,742097	1098,406028	409,909	0,388229	22,270000	51,425000
3,654992	1033,468093	414,269	0,360825	22,260000	51,410000
3,673064	1046,809047	418,520	0,366455	22,270000	51,385000
3,760003	1115,454217	422,879	0,395423	22,270000	51,410000
3,847015	1183,322997	427,238	0,424064	22,270000	51,410000
3,934000	1250,807631	431,593	0,452542	22,270000	51,385000
4,020969	1317,681335	435,950	0,480763	22,270000	51,400000
4,107981	1383,794848	440,308	0,508663	22,270000	51,425000
4,194925	1449,696618	444,664	0,536474	22,260000	51,410000
4,281923	1515,534749	449,021	0,564257	22,270000	51,425000
4,368921	1578,615595	453,381	0,590877	22,270000	51,400000
4,389857	1594,613170	457,741	0,597628	22,270000	51,400000
4,389961	1593,232792	462,098	0,597046	22,270000	51,370000
4,350955	1563,245150	466,455	0,584391	22,260000	51,370000
4,263906	1492,186343	470,808	0,554404	22,270000	51,360000
4,176965	1426,723101	475,164	0,526779	22,260000	51,400000
4,089973	1356,926651	479,527	0,497325	22,260000	51,385000
4,002976	1292,028057	483,886	0,469938	22,270000	51,385000
3,916039	1225,515357	488,241	0,441869	22,270000	51,425000
3,832043	1160,106496	492,594	0,414267	22,270000	51,410000
3,919007	1228,523724	496,839	0,443139	22,280000	51,410000
4,006014	1296,800948	501,199	0,471952	22,270000	51,400000
4,093012	1364,098138	505,559	0,500351	22,260000	51,435000
4,179944	1433,667802	509,919	0,529709	22,270000	51,410000
4,266920	1497,633803	514,278	0,556703	22,270000	51,410000
4,353973	1563,982200	518,632	0,584702	22,270000	51,410000
4,440912	1630,158194	522,987	0,612628	22,270000	51,435000
4,527898	1696,545931	527,342	0,640644	22,270000	51,410000
4,614945	1762,157277	531,701	0,668332	22,260000	51,400000
4,668884	1804,318396	536,058	0,686124	22,280000	51,410000
4,668866	1802,350230	540,417	0,685293	22,280000	51,385000
4,662841	1798,979700	544,776	0,683871	22,270000	51,410000
[...]
2,427439	168,124954	101,145	-0,004333	22,270000	51,410000
2,409546	153,169894	105,387	-0,010644	22,260000	51,400000
2,496478	218,907361	109,749	0,017097	22,270000	51,425000
2,583488	278,867604	114,106	0,042400	22,270000	51,410000
2,670470	339,572997	118,463	0,068018	22,270000	51,425000
2,724479	377,116271	122,820	0,083861	22,270000	51,410000
2,724504	374,694535	127,181	0,082839	22,260000	51,435000
2,718470	370,854238	131,539	0,081219	22,280000	51,400000
2,631444	301,887404	135,897	0,052115	22,260000	51,450000
2,625487	299,262024	140,142	0,051007	22,270000	51,425000
2,712474	365,296856	144,497	0,078874	22,270000	51,400000
2,799422	428,573247	148,850	0,105576	22,260000	51,385000
2,886497	491,958401	153,210	0,132325	22,260000	51,410000
2,973456	552,568915	157,566	0,157902	22,260000	51,450000
3,003480	574,249991	161,924	0,167052	22,280000	51,410000
3,003387	572,759692	166,281	0,166423	22,260000	51,425000
2,973449	549,066480	170,641	0,156424	22,260000	51,410000
2,886424	481,368946	175,000	0,127856	22,270000	51,425000
2,799507	415,655778	179,356	0,100125	22,270000	51,435000
2,871435	473,084364	183,606	0,124360	22,280000	51,385000
2,958441	539,127296	187,975	0,152230	22,270000	51,410000
3,045439	603,351322	192,333	0,179333	22,280000	51,400000
3,132375	667,161119	196,694	0,206260	22,270000	51,370000
3,219399	730,084605	201,048	0,232814	22,270000	51,425000
3,282380	777,401603	205,400	0,252782	22,270000	51,370000
3,282367	775,214751	209,758	0,251859	22,260000	51,425000
3,282386	774,321497	214,115	0,251482	22,270000	51,385000
3,198419	708,027483	218,471	0,223506	22,270000	51,410000
3,111484	643,497991	222,829	0,196274	22,270000	51,410000
3,024400	578,270790	227,187	0,168749	22,270000	51,385000
3,066416	611,009932	231,424	0,182564	22,270000	51,435000
3,153466	677,115345	235,785	0,210461	22,270000	51,400000
3,240408	742,256924	240,140	0,237951	22,270000	51,400000
3,327364	808,808964	244,495	0,266036	22,270000	51,425000
3,414391	870,752416	248,853	0,292176	22,270000	51,400000
3,501384	935,281907	253,210	0,319407	22,270000	51,410000
3,561352	980,813555	257,566	0,338622	22,270000	51,385000
3,561303	978,853488	261,919	0,337794	22,270000	51,385000
3,561342	977,686010	266,278	0,337302	22,260000	51,410000
3,474362	911,501916	270,634	0,309372	22,270000	51,400000
3,387377	844,267208	274,993	0,280999	22,260000	51,425000
3,300378	776,398428	279,358	0,252358	22,260000	51,400000
3,213386	710,253675	283,713	0,224445	22,270000	51,400000
3,297417	775,646336	287,981	0,252041	22,270000	51,425000
3,384382	845,035499	292,344	0,281323	22,280000	51,410000
3,471350	909,448126	296,699	0,308505	22,260000	51,400000
3,558360	976,714075	301,056	0,336892	22,270000	51,425000
3,645311	1041,910036	305,416	0,364404	22,270000	51,400000
3,732296	1104,300115	309,771	0,390733	22,270000	51,385000
3,819277	1171,894670	314,127	0,419258	22,270000	51,410000
3,840283	1184,717260	318,485	0,424669	22,260000	51,465000
3,840281	1183,024474	322,841	0,423955	22,270000	51,385000
3,801285	1153,655861	327,199	0,411561	22,260000	51,425000
3,714332	1085,975683	331,556	0,383000	22,270000	51,410000
3,627344	1016,091297	335,915	0,353509	22,280000	51,410000
3,540331	949,900261	340,269	0,325576	22,260000	51,400000
3,453347	886,702551	344,628	0,298907	22,280000	51,385000
3,471386	898,843630	348,871	0,304030	22,260000	51,410000
3,558328	968,193452	353,234	0,333296	22,280000	51,435000
3,645319	1034,009599	357,597	0,361070	22,260000	51,385000
3,732322	1101,369270	361,954	0,389496	22,260000	51,385000
3,819324	1166,737633	366,309	0,417082	22,270000	51,425000
3,906334	1234,425911	370,667	0,445646	22,280000	51,410000
3,993288	1297,639820	375,020	0,472322	22,250000	51,395000
4,080311	1362,334771	379,377	0,499624	22,270000	51,400000
4,119276	1392,306215	383,730	0,512271	22,270000	51,435000
4,119226	1390,519707	388,090	0,511518	22,270000	51,425000
4,098294	1373,801281	392,451	0,504462	22,260000	51,400000
4,011303	1304,952468	396,807	0,475408	22,270000	51,410000
3,924326	1238,188685	401,169	0,447234	22,270000	51,425000
3,837337	1171,260599	405,525	0,418990	22,260000	51,450000
3,750340	1105,342630	409,884	0,391173	22,270000	51,410000
3,663267	1039,291599	414,245	0,363299	22,260000	51,425000
3,681284	1054,262857	418,487	0,369617	22,270000	51,400000
3,768344	1121,010441	422,849	0,397785	22,270000	51,425000
3,855335	1187,217676	427,204	0,425724	22,270000	51,400000
3,942323	1256,043348	431,562	0,454769	22,270000	51,400000
4,029253	1322,383646	435,918	0,482764	22,270000	51,410000
4,116287	1386,436426	440,277	0,509794	22,270000	51,400000
4,203221	1453,653779	444,636	0,538160	22,260000	51,425000
4,290181	1518,043265	448,994	0,565333	22,270000	51,410000
4,377249	1585,654019	453,349	0,593864	22,260000	51,425000
4,398204	1599,730867	457,705	0,599805	22,260000	51,400000
4,398193	1598,586530	462,063	0,599322	22,270000	51,400000
4,359227	1565,972351	466,419	0,585559	22,270000	51,400000
4,272192	1497,131637	470,779	0,556508	22,270000	51,410000
4,185220	1431,943776	475,139	0,528999	22,270000	51,400000
4,098265	1363,886395	479,496	0,500278	22,270000	51,400000
4,011292	1298,055206	483,856	0,472498	22,270000	51,400000
3,924294	1231,808631	488,214	0,444542	22,260000	51,425000
3,840307	1165,553956	492,573	0,416582	22,270000	51,410000
3,927343	1233,877462	496,813	0,445415	22,280000	51,360000
4,014307	1304,655102	501,171	0,475283	22,260000	51,425000
4,101237	1371,747491	505,531	0,503596	22,270000	51,425000
4,188284	1436,309381	509,888	0,530841	22,270000	51,425000
4,275221	1505,393078	514,245	0,559994	22,270000	51,385000
4,362228	1571,623454	518,603	0,587943	22,280000	51,435000
4,449214	1638,355996	522,956	0,616104	22,270000	51,400000
4,536207	1701,804789	527,315	0,642880	22,260000	51,385000
4,623203	1767,675318	531,671	0,670677	22,280000	51,450000
4,677079	1810,329347	536,028	0,688677	22,280000	51,425000
4,677119	1808,447960	540,383	0,687883	22,270000	51,400000
4,671147	1802,921819	544,741	0,685551	22,260000	51,425000
4,584123	1735,625787	549,101	0,657152	22,270000	51,435000
4,497245	1664,566980	553,455	0,627166	22,280000	51,400000
4,410252	1597,944359	557,808	0,599051	22,280000	51,410000
4,323227	1531,422403	562,164	0,570979	22,260000	51,410000
4,236194	1462,143161	566,523	0,541743	22,270000	51,450000
4,149300	1395,308797	570,879	0,513539	22,260000	51,400000
4,062296	1331,209734	575,237	0,486489	22,270000	51,450000
3,975306	1262,925568	579,590	0,457673	22,260000	51,425000
3,888262	1197,830273	583,946	0,430203	22,280000	51,400000
3,801343	1132,187685	588,305	0,402501	22,270000	51,410000
3,714332	1066,701301	592,663	0,374866	22,270000	51,410000
3,627352	1003,284906	597,019	0,348104	22,270000	51,435000
3,540352	936,003916	601,376	0,319712	22,260000	51,400000
3,453397	872,218417	605,736	0,292794	22,260000	51,400000
3,366432	806,464751	610,095	0,265046	22,260000	51,400000
3,279453	742,099563	614,454	0,237884	22,270000	51,425000
3,192487	680,579597	618,811	0,211923	22,260000	51,385000
3,105406	616,629795	623,172	0,184936	22,280000	51,410000
3,018486	552,342130	627,528	0,157807	22,270000	51,425000
2,931476	488,768374	631,885	0,130979	22,260000	51,425000
2,844487	425,649345	636,246	0,104342	22,280000	51,435000
2,757522	362,428493	640,599	0,077663	22,270000	51,400000
2,670546	297,372538	644,958	0,050209	22,270000	51,400000
2,583507	235,382803	649,312	0,024050	22,260000	51,425000
2,496535	175,688685	653,671	-0,001141	22,270000	51,400000
2,409527	112,663378	658,025	-0,027738	22,260000	51,385000
2,322470	53,565147	662,385	-0,052677	22,270000	51,425000
2,235495	-7,117104	666,742	-0,078285	22,270000	51,435000
2,148520	-64,890495	671,101	-0,102666	22,260000	51,410000
2,061496	-125,093722	675,455	-0,128071	22,270000	51,425000
1,974575	-181,620955	679,814	-0,151926	22,260000	51,410000
1,887531	-240,751583	684,175	-0,176879	22,280000	51,425000
1,800535	-292,434186	688,536	-0,198689	22,270000	51,410000
1,713603	-349,589705	692,892	-0,222809	22,270000	51,425000
1,626569	-407,958984	697,251	-0,247440	22,270000	51,410000
1,539557	-460,104414	701,607	-0,269446	22,270000	51,370000
1,452573	-510,886821	705,965	-0,290876	22,270000	51,425000
1,365572	-560,242567	710,326	-0,311704	22,260000	51,410000
1,278550	-608,414636	714,687	-0,332033	22,270000	51,435000
1,191549	-651,037424	719,045	-0,350020	22,260000	51,410000
1,104594	-689,145346	723,403	-0,366101	22,280000	51,400000
1,017608	-712,879054	727,759	-0,376117	22,270000	51,400000
0,930539	-728,303882	732,118	-0,382626	22,270000	51,425000
0,843570	-0,006942	736,473	-0,075285	22,270000	51,400000
0,756591	0,259182	740,829	-0,075172	22,270000	51,410000
0,669551	0,259182	745,193	-0,075172	22,270000	51,400000
0,666566	0,525307	745,343	-0,075060	22,270000	51,400000