File: Nanoindentation Datenauswertung/data/Test Measurement/1,1um
Quasi static measurement routine
Tip parameters (shape,radius, material...)
11.07.2022

Piezo position[nm]	MEMS displ.[nm]	Time[ms]	Cap [pf]
eoh
2,389974	-0,182262	0,198	-0,100155
2,399999	-0,488281	0,451	-0,100288
2,410004	-0,731297	0,702	-0,100393
2,420042	-1,036191	0,954	-0,100525
2,430010	-1,096945	1,207	-0,100552
2,440032	-1,280332	1,458	-0,100631
2,450022	-1,585226	1,710	-0,100764
2,459989	-2,255769	1,960	-0,101055
2,470019	-2,621418	2,212	-0,101213
2,480062	-4,145890	2,463	-0,101875
2,490043	-4,877187	2,715	-0,102192
2,499979	-4,937941	2,967	-0,102219
2,510019	-5,242836	3,219	-0,102351
2,519980	-6,585046	3,470	-0,102934
2,529991	-7,377097	3,720	-0,103277
2,540003	-7,316343	3,971	-0,103251
2,550017	-9,084956	4,221	-0,104019
2,560002	-9,388726	4,474	-0,104150
2,569989	-9,693620	4,724	-0,104283
2,579965	-11,462234	4,974	-0,105050
2,589990	-12,621058	5,226	-0,105553
2,600007	-21,461874	5,480	-0,109390
2,609907	-21,644135	5,731	-0,109469
2,620006	-15,791511	5,984	-0,106929
2,629968	-9,572113	6,236	-0,104230
2,639978	-4,390031	6,486	-0,101981
2,649987	0,609789	6,737	-0,099811
2,660028	6,280152	6,988	-0,097350
2,670020	13,170093	7,240	-0,094360
2,680009	20,425682	7,490	-0,091211
2,689981	27,375252	7,742	-0,088195
2,700005	34,935736	8,000	-0,084914
2,710009	41,215888	8,251	-0,082188
2,720023	46,642110	8,503	-0,079833
2,730022	51,824192	8,759	-0,077584
2,740003	57,433801	9,014	-0,075149
2,749991	63,774707	9,265	-0,072397
2,759976	68,956788	9,524	-0,070148
2,770030	73,774347	9,777	-0,068058
2,779968	79,749604	10,032	-0,065464
2,790029	86,090510	10,282	-0,062712
2,800027	92,430291	10,533	-0,059961
2,810020	98,223286	10,784	-0,057447
2,819994	103,100473	11,036	-0,055330
2,829966	108,954223	11,287	-0,052790
2,840044	114,441199	11,537	-0,050408
2,850018	119,684035	11,790	-0,048133
2,860009	125,110257	12,041	-0,045778
2,869965	129,195394	12,303	-0,044005
2,879991	135,658932	12,554	-0,041200
2,889979	140,780260	12,809	-0,038977
2,899964	145,780080	13,060	-0,036807
2,910004	151,876845	13,314	-0,034161
2,919987	158,522645	13,565	-0,031277
2,930020	163,765481	13,818	-0,029001
2,939983	171,447473	14,071	-0,025667
2,949998	178,276660	14,322	-0,022704
2,959963	184,861706	14,574	-0,019846
2,969942	192,543698	14,826	-0,016512
2,980004	198,884604	15,079	-0,013760
2,989988	205,591158	15,330	-0,010849
2,999946	212,724114	15,581	-0,007753
3,009943	219,004266	15,832	-0,005028
3,019974	226,503996	16,083	-0,001773
3,029991	231,990972	16,335	0,000608
3,039988	238,820159	16,587	0,003572
3,050013	244,062995	16,841	0,005848
3,059967	226,625504	17,095	-0,001720
3,069979	231,625324	17,347	0,000450
3,079967	236,259496	17,598	0,002461
3,089997	241,685718	17,848	0,004816
3,099964	246,136503	18,099	0,006748
3,109954	249,490342	18,365	0,008203
3,120024	253,940002	18,639	0,010134
3,129969	258,147771	18,891	0,011960
3,139956	262,964205	19,150	0,014051
3,149965	269,670759	19,402	0,016961
3,159957	275,096981	19,662	0,019316
3,169933	281,132993	19,923	0,021936
3,179929	286,864109	20,174	0,024423
3,189980	290,888492	20,428	0,026170
3,199973	296,375468	20,688	0,028551
3,209964	299,058765	20,939	0,029716
3,219962	304,789882	21,201	0,032203
3,229925	308,935772	21,482	0,034002
3,239930	312,959029	21,734	0,035749
3,249917	318,019603	21,988	0,037945
3,259931	323,142056	22,240	0,040168
3,269928	326,311384	22,492	0,041543
3,279955	331,738731	22,744	0,043899
3,289934	337,225707	22,996	0,046280
3,299939	342,651930	23,248	0,048635
3,309887	348,687941	23,500	0,051255
3,319919	353,687761	23,752	0,053425
3,329989	358,625702	24,022	0,055568
3,339961	364,051924	24,274	0,057923
3,349953	368,746850	24,526	0,059960
3,359931	374,295705	24,777	0,062369
3,369871	377,710298	25,036	0,063851
3,379898	382,892380	25,290	0,066100
3,389930	387,038270	25,540	0,067899
3,399922	391,672442	25,790	0,069910
3,409929	396,244735	26,045	0,071895
3,419870	400,085730	26,303	0,073562
3,429906	403,439570	26,555	0,075017
3,439908	406,914918	26,835	0,076525
3,449922	412,767542	27,085	0,079065
3,459926	418,377151	27,337	0,081500
3,469850	424,778811	27,587	0,084278
3,479879	429,290350	27,853	0,086236
3,489915	434,838080	28,104	0,088644
3,489908	434,350923	28,372	0,088433
3,489880	433,557748	28,627	0,088088
3,489894	433,436240	28,881	0,088036
3,489944	432,400049	29,135	0,087586
3,489926	431,972521	29,385	0,087400
3,489861	432,216662	29,636	0,087506
3,489897	431,790260	29,888	0,087321
3,489886	432,034400	30,140	0,087427
3,489970	431,667627	30,393	0,087268
3,489835	432,339295	30,644	0,087560
3,489863	431,851013	30,894	0,087348
3,489867	431,546119	31,164	0,087215
3,489856	431,424611	31,430	0,087163
3,489902	431,301978	31,680	0,087109
3,489875	431,301978	31,938	0,087109
3,489848	431,057838	32,190	0,087003
3,489919	430,509928	32,442	0,086766
3,489905	430,814822	32,704	0,086898
3,489908	430,631435	32,954	0,086818
3,489845	431,119717	33,205	0,087030
3,479900	423,803373	33,461	0,083855
3,469895	416,121382	33,711	0,080521
3,459896	408,926546	33,964	0,077398
3,449868	402,159238	34,215	0,074461
3,439892	395,025157	34,468	0,071365
3,429945	388,135216	34,732	0,068375
3,419937	381,123767	34,983	0,065332
3,409907	373,746670	35,234	0,062130
3,399882	366,979362	35,485	0,059193
3,389949	360,210928	35,737	0,056256
3,379888	352,468183	35,994	0,052896
3,369924	345,517488	36,246	0,049879
3,359913	338,627547	36,497	0,046889
3,349895	331,189696	36,764	0,043661
3,339960	324,483142	37,016	0,040750
3,329925	317,349060	37,269	0,037654
3,319888	310,398365	37,534	0,034637
3,309937	304,057460	37,784	0,031885
3,299952	296,314714	38,045	0,028525
3,289908	289,181758	38,296	0,025429
3,279932	282,291817	38,548	0,022439
3,269915	275,280368	38,812	0,019396
3,259891	267,719884	39,072	0,016115
3,249922	260,098646	39,323	0,012807
3,239918	253,392092	39,582	0,009896
3,229920	246,318764	39,841	0,006827
3,219947	239,734843	40,094	0,003969
3,209981	231,990972	40,346	0,000608
3,200020	225,407051	40,597	-0,002249
3,189907	218,089583	40,864	-0,005425
3,179948	211,810556	41,126	-0,008150
3,169941	204,371580	41,377	-0,011378
3,159988	197,299377	41,631	-0,014448
3,149920	189,738893	41,890	-0,017729
3,139960	182,727445	42,144	-0,020772
3,129950	176,812941	42,396	-0,023339
3,119941	168,034004	42,647	-0,027149
3,109946	161,265571	42,899	-0,030086
3,099967	153,766966	43,149	-0,033341
3,089927	147,242674	43,400	-0,036172
3,079982	139,682190	43,654	-0,039454
3,069971	133,280530	43,918	-0,042232
3,059965	126,024941	44,169	-0,045381
3,050008	119,441019	44,436	-0,048238
3,039944	111,757903	44,700	-0,051573
3,029933	105,295489	44,950	-0,054377
3,019966	97,308603	45,204	-0,057844
3,009964	91,211838	45,472	-0,060490
2,999975	84,077756	45,722	-0,063586
2,989984	76,273131	45,978	-0,066973
2,980000	69,628456	46,239	-0,069857
2,969968	63,287550	46,490	-0,072609
2,959992	59,994465	46,743	-0,074038
2,950005	57,799449	46,994	-0,074991
2,939953	54,263348	47,246	-0,076525
2,930027	52,251719	47,516	-0,077398
2,919949	49,386161	47,766	-0,078642
2,909983	46,399095	48,030	-0,079938
2,899967	46,215708	48,282	-0,080018
2,890011	42,069817	48,535	-0,081817
2,879991	39,081626	48,792	-0,083114
2,869976	36,704349	49,044	-0,084146
2,859997	34,630841	49,294	-0,085046
2,849999	30,668338	49,553	-0,086766
2,840009	29,997795	49,803	-0,087057
2,829999	26,827342	50,054	-0,088433
2,819982	24,204799	50,305	-0,089571
2,809999	20,852085	50,559	-0,091026
2,799991	18,840456	50,810	-0,091899
2,790070	16,278667	51,062	-0,093011
2,780007	13,718003	51,313	-0,094122
2,770034	11,096585	51,563	-0,095260
2,759992	8,170273	51,815	-0,096530
2,749981	5,426222	52,077	-0,097721
2,740005	3,780242	52,343	-0,098435
2,730000	1,158824	52,593	-0,099573
2,719978	-1,157699	52,853	-0,100578
2,710018	-4,023257	53,108	-0,101822
2,699948	-6,279027	53,359	-0,102801
2,689988	-9,327972	53,611	-0,104124
2,680000	-11,278847	53,862	-0,104971
2,670001	-12,803319	54,113	-0,105632
2,659961	-16,339421	54,365	-0,107167
2,649988	-17,863893	54,617	-0,107829
2,640026	-19,754014	54,883	-0,108649
2,629995	-20,973592	55,148	-0,109178
2,619996	-22,619573	55,398	-0,109893
2,609949	-23,899905	55,652	-0,110448
2,599993	-24,509694	55,910	-0,110713
2,590002	-22,741080	56,161	-0,109945
2,580002	-21,583381	56,420	-0,109443
2,570018	-17,985401	56,687	-0,107881
2,560013	-17,009964	56,939	-0,107458
2,550025	-16,339421	57,204	-0,107167
2,539990	-12,864073	57,465	-0,105659
2,529991	-12,498425	57,716	-0,105500
2,519994	-12,376917	57,973	-0,105447
2,510038	-11,278847	58,223	-0,104971
2,500037	-9,998515	58,489	-0,104415
2,489991	-9,816253	58,753	-0,104336
2,480014	-8,231027	59,005	-0,103648
2,470062	-8,291781	59,265	-0,103674
2,459966	-7,498605	59,515	-0,103330
2,449998	-6,462414	59,768	-0,102880
2,439962	-4,390031	60,020	-0,101981
2,430005	-3,536101	60,288	-0,101610
2,419990	-3,657609	60,539	-0,101663
2,409997	-2,134262	60,798	-0,101002
2,399961	-2,134262	61,050	-0,101002
2,390047	-1,645980	61,300	-0,100790