File: Nanoindentation Datenauswertung/data/Test Measurement/1,5um
Quasi static measurement routine
Tip parameters (shape,radius, material...)
11.07.2022

Piezo position[nm]	MEMS displ.[nm]	Time[ms]	Cap [pf]
eoh
2,343871	0,000000	0,212	-0,098594
2,355856	-0,609789	0,533	-0,098858
2,367813	-0,549035	0,835	-0,098832
2,379874	-0,731297	1,138	-0,098911
2,391861	-1,645980	1,440	-0,099308
2,403898	-1,706734	1,741	-0,099334
2,415880	-1,950875	2,044	-0,099440
2,427920	-2,560664	2,345	-0,099705
2,439872	-2,682172	2,649	-0,099758
2,451898	-3,048945	2,950	-0,099917
2,463895	-3,048945	3,260	-0,099917
2,475839	-3,719488	3,591	-0,100208
2,487858	-4,390031	3,892	-0,100499
2,499892	-4,206644	4,206	-0,100419
2,511832	-5,548855	4,509	-0,101002
2,523869	-6,768433	4,832	-0,101531
2,535868	-9,206464	5,159	-0,102589
2,547837	-11,645620	5,474	-0,103648
2,559861	-11,522987	5,797	-0,103595
2,571867	-11,827882	6,103	-0,103727
2,583828	-4,572293	6,406	-0,100578
2,595869	2,744051	6,707	-0,097403
2,607880	11,157339	7,009	-0,093751
2,619853	19,814768	7,336	-0,089994
2,631874	27,863533	7,670	-0,086501
2,643857	35,545525	7,984	-0,083167
2,655859	43,227517	8,286	-0,079833
2,667902	48,715618	8,614	-0,077451
2,679850	57,312293	8,921	-0,073720
2,691871	64,994285	9,240	-0,070386
2,703883	70,969542	9,564	-0,067793
2,715858	77,797604	9,865	-0,064830
2,727923	84,931686	10,167	-0,061733
2,739888	92,248029	10,491	-0,058558
2,751906	98,831950	10,794	-0,055701
2,763877	105,661137	11,095	-0,052737
2,775843	112,733340	11,413	-0,049667
2,787867	119,988929	11,714	-0,046519
2,799866	127,792429	12,040	-0,043132
2,811839	134,621616	12,343	-0,040168
2,823824	139,865576	12,646	-0,037892
2,835801	144,682010	12,947	-0,035802
2,847875	150,596513	13,272	-0,033235
2,859865	157,424575	13,593	-0,030271
2,871876	164,985059	13,894	-0,026990
2,883872	171,265211	14,197	-0,024265
2,895831	177,057082	14,500	-0,021751
2,907879	184,556812	14,822	-0,018496
2,919880	191,019225	15,124	-0,015691
2,931821	197,176744	15,427	-0,013019
2,943856	202,602967	15,728	-0,010664
2,955839	208,943872	16,060	-0,007912
2,967867	214,431974	16,363	-0,005530
2,979859	221,199282	16,667	-0,002593
2,991847	228,576379	16,971	0,000608
3,003873	233,941847	17,274	0,002937
3,015849	240,404261	17,578	0,005742
3,027858	246,807046	17,881	0,008521
3,039815	253,025319	18,181	0,011219
3,051825	256,744807	18,503	0,012833
3,063850	263,695502	18,808	0,015850
3,075801	269,792267	19,112	0,018496
3,087831	276,682208	19,413	0,021486
3,099849	282,839727	19,718	0,024159
3,111809	288,875738	20,027	0,026778
3,123771	295,278523	20,329	0,029557
3,135812	302,045831	20,632	0,032494
3,147794	308,447491	20,959	0,035272
3,159758	313,019783	21,263	0,037257
3,171819	314,727643	21,567	0,037998
3,183857	320,336127	21,868	0,040432
3,195827	328,262259	22,169	0,043872
3,207775	335,701235	22,471	0,047101
3,219801	343,748875	22,774	0,050593
3,231821	350,578062	23,076	0,053557
3,243813	358,625702	23,380	0,057050
3,255781	366,430327	23,698	0,060437
3,267828	374,173072	24,003	0,063797
3,279772	367,892920	24,305	0,061072
3,291795	372,771232	24,606	0,063189
3,303798	379,112138	24,912	0,065941
3,315779	384,538360	25,227	0,068296
3,327765	391,366422	25,528	0,071259
3,339807	398,622012	25,836	0,074408
3,351786	403,621832	26,143	0,076578
3,363771	409,962738	26,467	0,079330
3,375778	416,730046	26,769	0,082267
3,387725	420,693674	27,072	0,083987
3,399755	427,765877	27,373	0,087057
3,411816	434,350923	27,673	0,089915
3,423751	440,326181	27,980	0,092508
3,435781	441,483880	28,281	0,093010
3,447738	447,398383	28,591	0,095577
3,459733	453,678535	28,899	0,098303
3,471752	459,957562	29,200	0,101028
3,483772	464,409472	29,501	0,102960
3,495796	471,542429	29,810	0,106056
3,507783	478,980280	30,111	0,109284
3,519741	486,906412	30,416	0,112724
3,531741	495,807982	30,717	0,116587
3,543717	503,794868	31,020	0,120053
3,555751	513,123965	31,332	0,124102
3,567730	521,415746	31,637	0,127701
3,579775	529,951667	31,937	0,131405
3,591718	539,097377	32,244	0,135375
3,603684	546,840123	32,551	0,138735
3,615735	555,741692	32,863	0,142598
3,627724	564,338368	33,174	0,146329
3,639733	573,300691	33,480	0,150219
3,651741	580,556281	33,783	0,153368
3,663723	590,311780	34,086	0,157602
3,675760	597,445862	34,392	0,160698
3,687747	605,249361	34,692	0,164084
3,699718	613,175493	35,012	0,167524
3,711672	621,345766	35,317	0,171070
3,723760	629,150391	35,619	0,174458
3,735751	637,137277	35,920	0,177924
3,747707	645,976968	36,224	0,181760
3,759715	654,025733	36,525	0,185253
3,771699	663,415584	36,827	0,189329
3,783722	672,804309	37,130	0,193403
3,795754	680,791196	37,430	0,196870
3,807716	689,876152	37,738	0,200813
3,819708	698,046425	38,047	0,204358
3,831759	706,947995	38,352	0,208222
3,843752	716,580861	38,653	0,212402
3,843710	717,372912	38,954	0,212746
3,843687	716,397474	39,269	0,212323
3,843756	716,093705	39,570	0,212191
3,843729	716,154459	39,873	0,212217
3,843716	715,971072	40,177	0,212138
3,843736	715,361283	40,495	0,211873
3,843726	715,605424	40,806	0,211979
3,843724	715,666178	41,108	0,212005
3,843711	715,971072	41,415	0,212138
3,843747	716,031826	41,718	0,212164
3,843748	715,179021	42,020	0,211794
3,843739	715,544670	42,323	0,211953
3,843703	715,361283	42,626	0,211873
3,843671	715,361283	42,927	0,211873
3,843703	715,239775	43,227	0,211820
3,843736	715,422037	43,530	0,211899
3,839697	712,495725	43,831	0,210629
3,827711	703,289261	44,137	0,206634
3,815665	693,290746	44,451	0,202294
3,803709	684,571438	44,754	0,198510
3,791765	675,243466	45,056	0,194462
3,779686	665,183072	45,374	0,190096
3,767725	656,464889	45,676	0,186312
3,755713	646,586757	45,979	0,182025
3,743708	637,319538	46,281	0,178003
3,731684	628,234582	46,591	0,174060
3,719712	619,455645	46,899	0,170250
3,707733	610,737462	47,204	0,166466
3,695752	601,226103	47,507	0,162338
3,683742	592,690182	47,810	0,158634
3,671758	584,031628	48,123	0,154876
3,659741	574,642902	48,430	0,150801
3,647729	565,497192	48,730	0,146832
3,635770	556,595622	49,037	0,142969
3,623707	547,694052	49,351	0,139105
3,611753	538,304201	49,660	0,135030
3,599725	528,976229	49,973	0,130982
3,587691	520,135414	50,273	0,127145
3,575711	511,112336	50,575	0,123229
3,563806	501,783239	50,881	0,119180
3,551784	493,125810	51,182	0,115423
3,539744	487,150553	51,485	0,112830
3,527762	475,749073	51,787	0,107881
3,515748	466,725995	52,107	0,103965
3,503737	458,129320	52,419	0,100234
3,491798	449,288504	52,722	0,096397
3,479782	441,118232	53,033	0,092852
3,467722	431,972521	53,334	0,088882
3,455809	423,315092	53,634	0,085125
3,443775	414,656538	53,936	0,081367
3,431721	406,059863	54,248	0,077636
3,419759	397,585820	54,570	0,073958
3,407783	389,171407	54,880	0,070307
3,395809	380,269837	55,187	0,066443
3,383811	372,222197	55,487	0,062951
3,371834	362,771592	55,791	0,058849
3,359857	355,028847	56,109	0,055489
3,347822	347,529117	56,410	0,052234
3,335787	337,712864	56,712	0,047974
3,323788	328,140751	57,031	0,043819
3,311811	320,336127	57,338	0,040432
3,299818	312,349240	57,638	0,036966
3,287843	304,362354	57,939	0,033500
3,275833	296,375468	58,258	0,030033
3,263754	287,778793	58,568	0,026302
3,251835	278,816469	58,871	0,022413
3,239815	270,341302	59,191	0,018734
3,227853	261,318224	59,493	0,014818
3,215805	253,087198	59,818	0,011246
3,203835	244,612030	60,119	0,007568
3,191827	236,807406	60,430	0,004181
3,179815	228,454871	60,731	0,000556
3,167822	219,187653	61,032	-0,003466
3,155823	210,651732	61,336	-0,007171
3,143850	202,542213	61,638	-0,010690
3,131829	194,433819	61,939	-0,014209
3,119828	185,043968	62,240	-0,018285
3,107836	176,873695	62,544	-0,021831
3,095845	167,911371	62,857	-0,025720
3,083847	159,680345	63,159	-0,029292
3,071865	151,144423	63,473	-0,032997
3,059856	142,365486	63,790	-0,036807
3,047829	134,316721	64,095	-0,040300
3,035837	125,293644	64,396	-0,044216
3,023852	117,123371	64,697	-0,047762
3,011833	108,405188	65,014	-0,051546
2,999850	100,905458	65,331	-0,054801
2,987816	92,308783	65,650	-0,058532
2,975840	84,626791	65,951	-0,061866
2,963857	80,053373	66,252	-0,063851
2,951868	75,481081	66,578	-0,065835
2,939839	70,969542	66,890	-0,067793
2,927861	69,261683	67,199	-0,068534
2,915889	65,542195	67,502	-0,070148
2,903881	62,981531	67,804	-0,071260
2,891797	61,396304	68,123	-0,071948
2,879840	57,128906	68,431	-0,073800
2,867909	55,604434	68,733	-0,074461
2,855838	52,861508	69,052	-0,075652
2,843866	50,361598	69,357	-0,076737
2,831925	46,642110	69,676	-0,078351
2,819869	43,898059	69,977	-0,079542
2,807851	40,666853	70,284	-0,080944
2,795903	36,032681	70,593	-0,082956
2,783858	33,838791	70,907	-0,083908
2,771837	30,606459	71,222	-0,085311
2,759868	27,436006	71,524	-0,086687
2,747879	24,204799	71,844	-0,088089
2,735880	20,424557	72,145	-0,089729
2,723856	17,498245	72,451	-0,091000
2,711864	14,876827	72,754	-0,092137
2,699846	11,767128	73,059	-0,093487
2,687890	8,475167	73,374	-0,094916
2,675919	6,950695	73,683	-0,095577
2,663888	3,414594	73,984	-0,097112
2,651827	0,853930	74,285	-0,098223
2,639892	-1,706734	74,592	-0,099334
2,627876	-4,572293	74,901	-0,100578
2,615876	-7,134082	75,207	-0,101690
2,603889	-9,937761	75,510	-0,102907
2,591876	-12,437671	75,812	-0,103992
2,579913	-13,413108	76,132	-0,104415
2,567861	-15,365108	76,460	-0,105262
2,555895	-14,389671	76,761	-0,104839
2,543919	-13,230847	77,081	-0,104336
2,531857	-11,950515	77,399	-0,103780
2,519881	-11,462234	77,721	-0,103568
2,507833	-10,426042	78,051	-0,103119
2,495935	-9,389851	78,355	-0,102669
2,483834	-8,535921	78,658	-0,102298
2,471896	-8,109519	78,979	-0,102113
2,459906	-7,926132	79,307	-0,102034
2,447850	-6,950695	79,627	-0,101610
2,435883	-6,219398	79,929	-0,101293
2,423886	-5,365468	80,258	-0,100922
2,411897	-4,572293	80,581	-0,100578
2,399924	-4,024383	80,901	-0,100340
2,387881	-3,536101	81,204	-0,100128
2,375864	-1,219578	81,507	-0,099123
2,363893	-1,768613	81,812	-0,099361
2,351843	-0,670543	82,138	-0,098885
2,343874	-0,488281	82,340	-0,098806