File: Nanoindentation Datenauswertung/data/Test Measurement/2,3um
Quasi static measurement routine
Tip parameters (shape,radius, material...)
11.07.2022

Piezo position[nm]	MEMS displ.[nm]	Time[ms]	Cap [pf]
eoh
2,275907	0,608664	0,188	-0,095075
2,293878	0,365648	0,642	-0,095180
2,311865	0,243016	1,093	-0,095233
2,329941	-0,304895	1,546	-0,095471
2,347845	0,487156	1,997	-0,095127
2,365956	0,000000	2,447	-0,095339
2,383878	-0,183387	2,900	-0,095418
2,401855	-1,524473	3,352	-0,096000
2,419870	-2,378402	3,811	-0,096371
2,437920	-2,073508	4,270	-0,096239
2,455838	-2,378402	4,722	-0,096371
2,473851	-3,171578	5,175	-0,096715
2,491865	-3,293086	5,626	-0,096768
2,509924	-4,329277	6,079	-0,097218
2,527910	-5,914504	6,532	-0,097906
2,545865	-2,012754	6,982	-0,096212
2,563863	10,608304	7,437	-0,090735
2,581918	22,436186	7,890	-0,085602
2,599889	33,288630	8,344	-0,080892
2,617886	45,788180	8,795	-0,075467
2,635880	56,458363	9,248	-0,070836
2,653845	67,248929	9,703	-0,066153
2,671878	78,894549	10,156	-0,061099
2,689864	88,954943	10,609	-0,056732
2,707876	99,685880	11,060	-0,052075
2,725881	110,233430	11,512	-0,047498
2,743872	118,585965	11,981	-0,043873
2,761871	127,366026	12,438	-0,040062
2,779886	137,487174	12,890	-0,035669
2,797884	148,034724	13,340	-0,031092
2,815856	158,095118	13,794	-0,026726
2,833815	167,849492	14,247	-0,022492
2,851865	177,788378	14,697	-0,018179
2,869860	187,665386	15,156	-0,013892
2,887878	195,103237	15,615	-0,010664
2,905875	205,224384	16,072	-0,006271
2,923852	213,699552	16,525	-0,002593
2,941874	223,027524	16,976	0,001455
2,959895	232,966410	17,433	0,005769
2,977843	242,660030	17,894	0,009976
2,995878	250,769549	18,353	0,013495
3,013830	258,146646	18,816	0,016697
3,031845	267,048216	19,269	0,020560
3,049839	277,047856	19,721	0,024900
3,067859	286,864109	20,173	0,029160
3,085849	295,094011	20,626	0,032732
3,103949	304,362354	21,077	0,036754
3,121865	310,580627	21,529	0,039453
3,139807	318,934287	21,981	0,043079
3,157857	328,262259	22,433	0,047127
3,175866	337,590231	22,887	0,051175
3,193842	340,334281	23,340	0,052366
3,211841	349,601499	23,792	0,056388
3,229832	359,661893	24,246	0,060754
3,247843	369,904549	24,697	0,065200
3,265846	374,965123	25,149	0,067396
3,283826	384,354974	25,600	0,071471
3,301776	391,548684	26,053	0,074593
3,319801	398,377871	26,506	0,077557
3,337770	408,438265	26,959	0,081923
3,355770	414,839925	27,411	0,084702
3,373777	420,387655	27,865	0,087109
3,391806	431,667627	28,350	0,092005
3,409777	442,824966	28,805	0,096847
3,427796	455,567531	29,258	0,102377
3,445776	468,493484	29,709	0,107987
3,463791	481,175295	30,160	0,113491
3,481840	494,222755	30,613	0,119154
3,499798	507,148708	31,067	0,124764
3,517825	519,647132	31,529	0,130188
3,535778	533,061366	31,996	0,136010
3,553816	545,499037	32,457	0,141408
3,571785	558,790638	32,912	0,147176
3,589765	568,667645	33,366	0,151463
3,607771	579,824984	33,817	0,156305
3,625766	590,616674	34,301	0,160989
3,643811	602,870959	34,777	0,166307
3,661751	616,223313	35,249	0,172102
3,679774	629,027758	35,712	0,177659
3,697811	642,258605	36,164	0,183401
3,715770	656,342256	36,618	0,189514
3,733791	669,328962	37,084	0,195150
3,751746	683,046965	37,557	0,201104
3,769734	696,217058	38,009	0,206819
3,787732	709,507533	38,461	0,212587
3,805697	722,556119	38,916	0,218250
3,823745	735,420192	39,368	0,223833
3,841718	748,467652	39,820	0,229496
3,859768	761,637745	40,273	0,235212
3,877744	774,319556	40,742	0,240716
3,895728	787,732665	41,218	0,246537
3,913739	799,986949	41,670	0,251855
3,931741	813,096288	42,148	0,257545
3,949678	826,387889	42,613	0,263313
3,967657	838,520665	43,069	0,268579
3,985719	851,446618	43,525	0,274189
4,003744	864,189183	43,984	0,279719
4,021714	876,261206	44,454	0,284958
4,039745	888,211721	44,916	0,290145
4,057665	899,064165	45,368	0,294855
4,075761	909,611715	45,819	0,299433
4,093699	922,110140	46,269	0,304857
4,111660	934,791952	46,724	0,310361
4,129690	947,291502	47,177	0,315786
4,147704	960,460469	47,631	0,321501
4,165718	973,447176	48,096	0,327137
4,183691	986,556515	48,553	0,332827
4,201682	999,176447	49,022	0,338304
4,219651	1012,712189	49,484	0,344178
4,237675	1025,454754	49,973	0,349708
4,255735	1038,685601	50,426	0,355451
4,273712	1052,525112	50,883	0,361457
4,291676	1064,902029	51,345	0,366829
4,309696	1077,827981	51,810	0,372438
4,327678	1091,668617	52,273	0,378445
4,345647	1105,142479	52,727	0,384293
4,363654	1118,494834	53,182	0,390088
4,381692	1131,238524	53,637	0,395619
4,399640	1144,529000	54,108	0,401387
4,417705	1158,369636	54,578	0,407394
4,435645	1171,295588	55,033	0,413003
4,453636	1184,464556	55,486	0,418719
4,471658	1198,000297	55,955	0,424593
4,489618	1210,987003	56,433	0,430229
4,507666	1224,216725	56,884	0,435971
4,525601	1237,935853	57,347	0,441925
4,543629	1250,799926	57,809	0,447508
4,561627	1263,970019	58,262	0,453224
4,575660	1273,968534	58,715	0,457563
4,575636	1274,883218	59,179	0,457960
4,575583	1274,273428	59,631	0,457696
4,575596	1273,968534	60,083	0,457563
4,575562	1274,212675	60,537	0,457669
4,575608	1274,396061	60,988	0,457749
4,575567	1273,786272	61,441	0,457484
4,575607	1273,480253	61,894	0,457352
4,575575	1274,151921	62,371	0,457643
4,575614	1273,847026	62,833	0,457511
4,575615	1274,699831	63,286	0,457881
4,573652	1272,627448	63,755	0,456981
4,555614	1259,091707	64,219	0,451107
4,537614	1245,191442	64,676	0,445074
4,519598	1231,960595	65,135	0,439332
4,501613	1218,180714	65,587	0,433352
4,483658	1205,133254	66,041	0,427689
4,465640	1192,146547	66,494	0,422053
4,447622	1178,854947	66,946	0,416284
4,429650	1164,222260	67,397	0,409934
4,411662	1151,663081	67,858	0,404483
4,393725	1138,615621	68,333	0,398820
4,375644	1123,982935	68,791	0,392470
4,357686	1110,934350	69,265	0,386807
4,339668	1098,009523	69,739	0,381197
4,321712	1084,108133	70,190	0,375164
4,303693	1070,145989	70,643	0,369104
4,285720	1057,280791	71,094	0,363521
4,267720	1043,746175	71,586	0,357647
4,249684	1030,027047	72,055	0,351693
4,231701	1016,918833	72,517	0,346004
4,213685	1003,322338	72,973	0,340103
4,195694	989,969983	73,444	0,334308
4,177679	976,312734	73,898	0,328381
4,159713	963,204520	74,349	0,322692
4,141739	949,424638	74,802	0,316711
4,123713	935,890022	75,273	0,310837
4,105700	922,659175	75,729	0,305095
4,087661	909,306821	76,204	0,299300
4,069700	895,588818	76,669	0,293347
4,051688	882,297217	77,154	0,287578
4,033702	868,456581	77,624	0,281571
4,015724	854,982719	78,089	0,275724
3,997731	841,935259	78,546	0,270061
3,979772	827,606342	79,000	0,263842
3,961771	813,401183	79,456	0,257677
3,943742	799,743934	79,912	0,251750
3,925718	786,024806	80,397	0,245796
3,907743	772,062662	80,853	0,239736
3,889738	758,832940	81,304	0,233995
3,871733	744,261008	81,755	0,227670
3,853723	730,603759	82,226	0,221743
3,835827	716,885756	82,703	0,215790
3,817773	703,289261	83,160	0,209889
3,799757	689,692765	83,614	0,203988
3,781770	675,609114	84,079	0,197875
3,763753	661,646970	84,555	0,191816
3,745760	647,196546	85,012	0,185544
3,727777	633,783437	85,467	0,179723
3,709762	620,857485	85,927	0,174113
3,691728	605,798396	86,390	0,167578
3,673770	592,811690	86,852	0,161941
3,655749	579,336703	87,312	0,156093
3,637752	565,253051	87,763	0,149981
3,619781	551,412415	88,216	0,143974
3,601768	537,876674	88,683	0,138100
3,583777	524,342058	89,152	0,132226
3,565785	511,050457	89,607	0,126457
3,547771	497,942243	90,058	0,120768
3,529822	483,614451	90,526	0,114550
3,511786	470,444358	90,990	0,108834
3,493790	457,092004	91,444	0,103039
3,475750	442,885720	91,906	0,096874
3,457775	430,326541	92,382	0,091423
3,439764	416,669292	92,840	0,085496
3,421819	403,559953	93,309	0,079806
3,403770	390,146844	93,764	0,073985
3,385798	376,794490	94,231	0,068190
3,367817	363,502889	94,685	0,062421
3,349771	350,272042	95,154	0,056679
3,331845	337,652110	95,606	0,051202
3,313844	325,031052	96,058	0,045725
3,295838	312,349240	96,518	0,040221
3,277860	299,911569	96,979	0,034823
3,259831	286,558090	97,438	0,029027
3,241899	274,669454	97,907	0,023868
3,223826	261,072959	98,384	0,017967
3,205837	248,025499	98,856	0,012304
3,187851	235,404441	99,318	0,006827
3,169864	223,089403	99,789	0,001482
3,151848	210,345712	100,263	-0,004049
3,133859	197,663900	100,718	-0,009553
3,115877	184,434179	101,172	-0,015294
3,097858	172,788558	101,646	-0,020349
3,079854	158,765661	102,113	-0,026435
3,061892	146,875900	102,568	-0,031595
3,043866	135,292159	103,023	-0,036622
3,025894	125,658167	103,487	-0,040803
3,007883	115,110617	103,955	-0,045381
2,989842	108,159922	104,424	-0,048397
2,971860	101,453368	104,891	-0,051308
2,953908	95,905638	105,370	-0,053716
2,935836	89,746994	105,823	-0,056389
2,917862	85,356963	106,291	-0,058294
2,899852	81,515967	106,767	-0,059961
2,881884	77,919112	107,221	-0,061522
2,863826	72,432136	107,696	-0,063903
2,845918	67,188175	108,172	-0,066179
2,827893	62,250234	108,631	-0,068322
2,809913	58,530746	109,101	-0,069937
2,791896	52,738875	109,575	-0,072450
2,773911	47,617548	110,031	-0,074673
2,755908	42,922622	110,503	-0,076710
2,737881	39,325767	110,957	-0,078271
2,719881	33,288630	111,413	-0,080892
2,701879	28,289936	111,878	-0,083061
2,683882	23,411623	112,364	-0,085178
2,665890	18,534436	112,822	-0,087295
2,647926	15,242476	113,283	-0,088724
2,629895	10,486796	113,758	-0,090788
2,611872	5,791871	114,228	-0,092825
2,593897	2,193890	114,679	-0,094387
2,575902	-1,768613	115,133	-0,096106
2,557930	-5,427347	115,584	-0,097694
2,539905	-9,145710	116,050	-0,099308
2,521865	-7,743871	116,509	-0,098700
2,503930	-6,706554	116,979	-0,098250
2,485874	-5,792996	117,439	-0,097853
2,467913	-3,902875	117,908	-0,097033
2,449886	-3,353840	118,388	-0,096794
2,431925	-3,232332	118,862	-0,096742
2,413850	-2,439156	119,336	-0,096397
2,395892	-1,768613	119,789	-0,096106
2,377909	-0,488281	120,259	-0,095551
2,359947	-0,549035	120,731	-0,095577
2,341897	-0,366773	121,216	-0,095498
2,323923	0,060754	121,685	-0,095313
2,305918	-0,488281	122,139	-0,095551
2,287904	-0,061879	122,617	-0,095366
2,275921	0,243016	122,939	-0,095233