File: Nanoindentation Datenauswertung/data/Test Measurement/modulus mapping on saphir, 2x2
Quasi static measurement routine
Tip parameters (shape,radius, material...)
29.06.2022

Piezo position[nm]	MEMS displ.[nm]	Time[ms]	Cap [pf]
eoh

X-Pos [um]	Y-Pos [um]
0,000000	0,070276

POC
3,583947
3,388705	0,721325	0,059	-0,089174
3,398879	-7,095614	0,159	-0,092613
3,408905	-7,877974	0,261	-0,092958
3,418927	-7,336426	0,362	-0,092719
3,428919	-7,095614	0,464	-0,092613
3,438879	-7,637163	0,564	-0,092852
3,448872	-7,276500	0,665	-0,092693
3,458868	-7,216575	0,765	-0,092667
3,468921	-7,637163	0,866	-0,092852
3,478876	-7,036799	0,966	-0,092587
3,488900	-7,216575	1,067	-0,092667
3,498832	-8,058860	1,168	-0,093037
3,508896	-7,336426	1,269	-0,092719
3,518877	-7,276500	1,369	-0,092693
3,528869	-6,915838	1,469	-0,092534
3,538934	-7,336426	1,570	-0,092719
3,548916	-6,915838	1,671	-0,092534
3,558915	-8,539373	1,773	-0,093249
3,568891	-8,359597	1,877	-0,093169
3,578944	-7,517312	1,977	-0,092799
3,588877	0,721325	2,077	-0,089174
3,598875	10,283869	2,178	-0,084966
3,608885	15,275435	2,287	-0,082770
3,618888	30,369984	2,388	-0,076128
3,628898	39,932528	2,489	-0,071921
3,638878	47,388805	2,589	-0,068640
3,648861	54,606490	2,690	-0,065464
3,658829	70,302512	2,791	-0,058558
3,668887	81,728294	2,892	-0,053531
3,678846	89,787154	2,993	-0,049985
3,688892	94,117321	3,094	-0,048080
3,698848	109,211870	3,196	-0,041438
3,708918	118,113015	3,296	-0,037521
3,718889	128,817472	3,396	-0,032812
3,728841	137,296919	3,497	-0,029081
3,738871	148,842551	3,598	-0,024000
3,748806	159,247381	3,698	-0,019422
3,758891	169,049627	3,798	-0,015109
3,768852	174,222079	3,899	-0,012833
3,778846	188,294567	4,000	-0,006642
3,788852	198,277699	4,100	-0,002249
3,798802	203,389116	4,346	0,000000
3,808885	217,762340	4,477	0,006324
3,818824	227,745472	4,577	0,010717
3,828833	237,908381	4,679	0,015188
3,838854	247,470925	4,779	0,019396
3,848897	257,452947	4,880	0,023788
3,858798	267,977628	4,981	0,028419
3,868843	272,909268	5,106	0,030589
3,878883	286,860795	5,207	0,036728
3,888861	297,145774	5,307	0,041253
3,898827	306,586248	5,407	0,045407
3,908835	311,398038	5,533	0,047524
3,918847	326,793324	5,634	0,054298
3,928832	336,656605	5,734	0,058638
3,938905	346,337891	5,835	0,062897
3,948802	356,201172	5,936	0,067237
3,958853	366,365190	6,036	0,071709
3,968817	375,685813	6,137	0,075811
3,978848	386,270419	6,237	0,080468
3,988842	395,471191	6,494	0,084516
3,998822	405,394398	6,595	0,088882
4,008766	410,326039	6,730	0,091052
4,018811	425,420588	6,831	0,097694
4,028734	435,102983	6,931	0,101954
4,038826	445,446777	7,032	0,106505
4,048848	455,429909	7,134	0,110898
4,058753	464,811568	7,234	0,115026
4,068823	474,553888	7,335	0,119313
4,078833	484,957608	7,436	0,123890
4,088817	493,617942	7,536	0,127701
4,098817	504,262473	7,637	0,132384
4,108774	514,425382	7,738	0,136856
4,118776	524,047852	7,839	0,141090
4,128795	533,670321	7,955	0,145324
4,138791	543,894265	8,055	0,149822
4,148850	553,515625	8,155	0,154056
4,158799	562,717507	8,255	0,158104
4,168806	572,579679	8,357	0,162444
4,178819	583,104359	8,457	0,167075
4,188796	593,147417	8,557	0,171494
4,198779	602,829812	8,657	0,175754
4,208744	612,753018	8,758	0,180120
4,218793	622,074751	8,859	0,184222
4,228781	632,297585	8,959	0,188720
4,238787	641,920055	9,060	0,192954
4,248788	652,143999	9,247	0,197452
4,258731	661,946245	9,347	0,201765
4,268743	671,868342	9,448	0,206131
4,278722	682,032360	9,548	0,210603
4,288736	691,233132	9,648	0,214651
4,298748	701,096413	9,749	0,218991
4,308800	706,328791	9,850	0,221293
4,318715	721,122603	9,969	0,227803
4,328749	730,564187	10,069	0,231957
4,338782	740,607244	10,169	0,236376
4,348772	750,831188	10,269	0,240875
4,358769	760,874245	10,369	0,245293
4,368780	770,375755	10,469	0,249474
4,378803	780,960360	10,571	0,254131
4,383757	785,471413	10,671	0,256116
4,383717	790,282093	10,771	0,258233
4,383758	790,401944	10,871	0,258286
4,383751	790,101207	10,971	0,258153
4,383730	789,560769	11,071	0,257916
4,383748	790,041282	11,171	0,258127
4,383760	789,740545	11,271	0,257995
4,383761	789,560769	11,372	0,257916
4,383775	790,162243	11,472	0,258180
4,383753	789,740545	11,573	0,257995
4,383753	789,680620	11,673	0,257968
4,383736	790,101207	11,774	0,258153
4,383729	790,041282	11,874	0,258127
4,383738	790,162243	11,974	0,258180
4,383724	789,800471	12,074	0,258021
4,383716	790,162243	12,175	0,258180
4,383752	789,319957	12,276	0,257810
4,383747	789,981357	12,376	0,258101
4,383737	789,680620	12,476	0,257968
4,383755	789,860396	12,577	0,258047
4,383771	789,981357	12,678	0,258101
4,383718	789,560769	12,778	0,257916
4,383713	789,139071	12,880	0,257730
4,383718	789,740545	12,980	0,257995
4,383746	789,740545	13,082	0,257995
4,383750	789,981357	13,183	0,258101
4,383742	789,921431	13,283	0,258074
4,383717	789,620694	13,384	0,257942
4,383749	789,620694	13,486	0,257942
4,383747	789,319957	13,586	0,257810
4,383770	789,379883	13,686	0,257836
4,383753	789,680620	13,786	0,257968
4,383745	789,319957	13,887	0,257810
4,383737	789,921431	13,987	0,258074
4,383727	789,620694	14,088	0,257942
4,383729	789,680620	14,189	0,257968
4,383721	788,658558	14,291	0,257519
4,383721	789,379883	14,391	0,257836
4,383734	789,139071	14,492	0,257730
4,383752	789,079146	14,592	0,257704
4,383725	789,800471	14,693	0,258021
4,383756	789,198997	14,793	0,257756
4,383760	789,981357	14,894	0,258101
4,383736	789,620694	14,996	0,257942
4,383735	789,560769	15,098	0,257916
4,383760	789,620694	15,198	0,257942
4,383740	789,800471	15,298	0,258021
4,383776	789,439808	15,398	0,257862
4,383723	788,658558	15,500	0,257519
4,383745	789,800471	15,601	0,258021
4,378781	789,260032	15,701	0,257783
4,368753	783,906694	15,801	0,255428
4,358724	769,955167	15,901	0,249289
4,348698	758,528276	16,001	0,244261
4,338827	749,387429	16,102	0,240239
4,328750	738,983709	16,203	0,235662
4,318754	729,060502	16,304	0,231295
4,308698	718,656783	16,405	0,226718
4,298753	708,793501	16,508	0,222378
4,288735	698,570668	16,609	0,217880
4,278742	688,948198	16,709	0,213646
4,268772	680,048162	16,810	0,209730
4,258814	668,320534	16,910	0,204570
4,248724	659,119762	17,010	0,200521
4,238822	648,535156	17,111	0,195864
4,228798	638,311213	17,212	0,191366
4,218727	628,508967	17,312	0,187053
4,208743	618,285023	17,412	0,182554
4,198764	608,602628	17,513	0,178294
4,188749	597,838246	17,613	0,173558
4,178747	588,036000	17,714	0,169245
4,168767	577,692205	17,815	0,164693
4,158810	568,009810	17,916	0,160433
4,148777	558,688077	18,018	0,156332
4,138794	548,043546	18,118	0,151648
4,128805	537,518865	18,219	0,147017
4,118775	528,378018	18,319	0,142995
4,108742	517,673562	18,419	0,138285
4,098775	507,329767	18,519	0,133734
4,088798	497,286710	18,619	0,129315
4,078816	487,484464	18,720	0,125002
4,068782	477,320446	18,821	0,120530
4,058772	467,457164	18,921	0,116190
4,048820	456,873668	19,022	0,111533
4,038742	447,371049	19,122	0,107352
4,028756	437,989391	19,223	0,103224
4,018800	428,006259	19,323	0,098832
4,008813	417,903276	19,423	0,094386
3,998808	408,341841	19,525	0,090179
3,988794	397,877086	19,625	0,085575
3,978726	388,435502	19,727	0,081420
3,968835	378,091708	19,828	0,076869
3,958797	367,988725	19,929	0,072424
3,948825	358,005593	20,030	0,068031
3,938750	348,263272	20,130	0,063745
3,928768	340,023526	20,230	0,060119
3,918781	331,605114	20,331	0,056415
3,908795	318,674538	20,432	0,050726
3,898814	308,270819	20,532	0,046148
3,888844	299,068936	20,632	0,042099
3,878762	288,906028	20,735	0,037627
3,868831	279,584295	20,836	0,033526
3,858777	270,383523	20,937	0,029478
3,848826	260,761053	21,038	0,025244
3,838846	250,116522	21,138	0,020560
3,828822	240,674938	21,240	0,016406
3,818802	230,331143	21,340	0,011854
3,808863	220,708674	21,440	0,007621
3,798837	212,169300	21,540	0,003863
3,788848	201,524769	21,640	-0,000820
3,778791	191,962225	21,741	-0,005028
3,768821	183,182040	21,841	-0,008891
3,758782	173,138983	21,941	-0,013310
3,748850	162,976074	22,042	-0,017782
3,738803	153,473455	22,142	-0,021963
3,728787	142,889959	22,242	-0,026620
3,718830	133,267489	22,342	-0,030854
3,708804	123,885831	22,442	-0,034981
3,698827	113,120339	22,542	-0,039718
3,688802	104,401190	22,642	-0,043555
3,678821	94,297097	22,743	-0,048000
3,668803	84,434925	22,843	-0,052340
3,658808	74,932306	22,943	-0,056521
3,648832	66,513894	23,043	-0,060225
3,638782	54,545455	23,144	-0,065491
3,628826	45,645419	23,246	-0,069407
3,618812	35,662287	23,346	-0,073800
3,608815	25,979892	23,446	-0,078060
3,598785	15,395286	23,547	-0,082717
3,588827	6,555176	23,647	-0,086607
3,578866	-3,788619	23,749	-0,091158
3,568824	-13,411088	23,849	-0,095392
3,558838	-7,818049	23,949	-0,092931
3,548880	-8,238636	24,051	-0,093116
3,538881	-8,299672	24,152	-0,093143
3,528831	-7,877974	24,252	-0,092958
3,518817	-8,359597	24,353	-0,093169
3,508864	-8,359597	24,454	-0,093169
3,498864	-7,937900	24,555	-0,092984
3,488832	-8,299672	24,657	-0,093143
3,478857	-8,238636	24,757	-0,093116
3,468851	-7,998935	24,859	-0,093011
3,458881	-7,577237	24,959	-0,092825
3,448837	-8,058860	25,059	-0,093037
3,438847	-7,818049	25,160	-0,092931
3,428834	-7,758123	25,261	-0,092905
3,418949	-7,216575	25,362	-0,092667
3,408903	-7,697088	25,462	-0,092878
3,398862	-7,577237	25,563	-0,092825
3,388882	-7,577237	25,663	-0,092825
3,383886	-7,517312	25,713	-0,092799

X-Pos [um]	Y-Pos [um]
0,000000	5,005777

POC
3,579487
3,384411	2,226119	0,057	-0,089544
3,394434	-4,569869	0,157	-0,092534
3,404432	-4,509943	0,258	-0,092508
3,414455	-4,930531	0,358	-0,092693
3,424420	-4,810680	0,458	-0,092640
3,434451	-5,171342	0,558	-0,092799
3,444443	-4,749645	0,660	-0,092613
3,454440	-5,111417	0,763	-0,092772
3,464431	-5,412154	0,864	-0,092905
3,474349	-4,749645	0,966	-0,092613
3,484405	-4,569869	1,066	-0,092534
3,494415	-5,111417	1,166	-0,092772
3,504381	-4,930531	1,268	-0,092693
3,514429	-5,591930	1,368	-0,092984
3,524390	-5,351119	1,470	-0,092878
3,534445	-5,171342	1,570	-0,092799
3,544431	-4,990456	1,670	-0,092719
3,554423	-5,051491	1,771	-0,092746
3,564397	-5,953702	1,872	-0,093143
3,574402	-6,253329	1,972	-0,093275
3,584420	1,563610	2,073	-0,089835
3,594403	10,104093	2,175	-0,086078
3,604449	21,770685	2,275	-0,080944
3,614400	31,333230	2,375	-0,076737
3,624387	40,834739	2,476	-0,072556
3,634489	51,899858	2,577	-0,067687
3,644441	61,281516	2,677	-0,063560
3,654461	71,325684	2,778	-0,059140
3,664404	80,767267	2,879	-0,054986
3,674379	91,350763	2,979	-0,050329
3,684425	101,214045	3,080	-0,045989
3,694420	110,896440	3,180	-0,041729
3,704401	120,458984	3,281	-0,037521
3,714436	130,681818	3,381	-0,033023
3,724389	140,304288	3,481	-0,028790
3,734434	150,287420	3,581	-0,024397
3,744428	159,848855	3,681	-0,020190
3,754466	170,915083	3,781	-0,015321
3,764476	180,717330	3,881	-0,011008
3,774423	190,579501	3,982	-0,006668
3,784429	200,142045	4,082	-0,002461
3,794462	210,125178	4,182	0,001932
3,804346	219,746538	4,282	0,006165
3,814412	229,128196	4,382	0,010293
3,824391	239,232289	4,484	0,014739
3,834450	249,215421	4,587	0,019131
3,844425	259,919877	4,688	0,023841
3,854395	269,421387	4,788	0,028022
3,864425	279,705256	4,888	0,032547
3,874428	289,086914	4,988	0,036675
3,884385	299,010121	5,089	0,041041
3,894381	309,173029	5,189	0,045513
3,904349	318,855424	5,290	0,049773
3,914405	328,237083	5,392	0,053901
3,924368	338,160289	5,493	0,058267
3,934342	348,203347	5,594	0,062686
3,944419	358,547141	5,695	0,067237
3,954416	367,928800	5,795	0,071365
3,964409	377,370384	5,895	0,075520
3,974400	387,775213	5,996	0,080098
3,984377	397,155762	6,097	0,084225
3,994352	407,680442	6,197	0,088856
4,004343	417,302912	6,297	0,093090
4,014297	427,286044	6,398	0,097482
4,024325	437,148216	6,499	0,101822
4,034350	447,011497	6,599	0,106162
4,044410	456,753817	6,701	0,110448
4,054306	466,916726	6,801	0,114920
4,064405	476,298384	6,901	0,119048
4,074305	486,341442	7,002	0,123467
4,084379	497,226784	7,102	0,128256
4,094349	505,827193	7,202	0,132041
4,104377	516,290838	7,303	0,136645
4,114358	525,852273	7,403	0,140852
4,124392	536,076216	7,505	0,145350
4,134367	545,758612	7,606	0,149610
4,144325	554,779608	7,707	0,153580
4,154378	565,424139	7,808	0,158263
4,164278	574,685946	7,909	0,162338
4,174424	584,608043	8,009	0,166704
4,184367	594,651101	8,109	0,171123
4,194350	604,755194	8,210	0,175569
4,204417	614,376554	8,310	0,179802
4,214384	624,600497	8,410	0,184301
4,224340	634,403853	8,510	0,188614
4,234342	644,085138	8,611	0,192874
4,244294	654,128196	8,711	0,197293
4,254335	664,232289	8,811	0,201739
4,264348	673,492987	8,911	0,205813
4,274372	683,296342	9,011	0,210127
4,284330	693,459251	9,111	0,214599
4,294337	703,322532	9,212	0,218938
4,304328	713,425515	9,314	0,223384
4,314309	722,687322	9,416	0,227459
4,324332	732,790305	9,516	0,231904
4,334297	742,953214	9,616	0,236376
4,344335	752,455833	9,717	0,240557
4,354299	763,039329	9,817	0,245214
4,364297	772,480913	9,918	0,249368
4,374375	782,764782	10,018	0,253893
4,379294	792,387251	10,119	0,258127
4,379257	792,146440	10,219	0,258021
4,379298	792,568137	10,320	0,258207
4,379277	792,447177	10,421	0,258153
4,379245	792,687988	10,521	0,258259
4,379285	792,086515	10,622	0,257995
4,379315	792,146440	10,722	0,258021
4,379204	792,327326	10,822	0,258101
4,379318	792,026589	11,009	0,257968
4,379268	792,086515	11,110	0,257995
4,379231	792,568137	11,211	0,258207
4,379276	791,845703	11,311	0,257889
4,379233	791,906738	11,412	0,257916
4,379256	792,447177	11,514	0,258153
4,379285	792,026589	11,615	0,257968
4,379326	792,267401	11,716	0,258074
4,379342	792,206365	11,818	0,258047
4,379305	791,785778	11,920	0,257862
4,379295	791,665927	12,020	0,257810
4,379268	791,425115	12,120	0,257704
4,379267	792,146440	12,220	0,258021
4,379272	792,026589	12,320	0,257968
4,379305	792,026589	12,421	0,257968
4,379260	791,544966	12,522	0,257756
4,379264	791,966664	12,625	0,257942
4,379311	792,086515	12,726	0,257995
4,379291	791,906738	12,828	0,257916
4,379294	791,906738	12,928	0,257916
4,379256	791,606001	13,028	0,257783
4,379273	791,966664	13,128	0,257942
4,379283	791,725852	13,228	0,257836
4,379305	791,845703	13,330	0,257889
4,379273	792,387251	13,431	0,258127
4,379270	791,966664	13,532	0,257942
4,379289	792,146440	13,633	0,258021
4,379349	791,906738	13,735	0,257916
4,379253	792,086515	13,835	0,257995
4,379246	791,725852	13,936	0,257836
4,379272	791,606001	14,037	0,257783
4,379240	792,026589	14,137	0,257968
4,379270	792,146440	14,237	0,258021
4,379300	792,146440	14,338	0,258021
4,379285	791,906738	14,438	0,257916
4,379295	792,026589	14,539	0,257968
4,379294	791,725852	14,639	0,257836
4,379301	791,544966	14,740	0,257756
4,379296	792,026589	14,841	0,257968
4,379299	791,665927	14,941	0,257810
4,379302	791,906738	15,041	0,257916
4,379255	791,845703	15,142	0,257889
4,374253	791,785778	15,242	0,257862
4,364285	781,622869	15,344	0,253391
4,354294	771,579812	15,446	0,248972
4,344287	761,355868	15,546	0,244473
4,334356	751,493697	15,646	0,240134
4,324330	741,690341	15,747	0,235820
4,314305	731,225586	15,847	0,231216
4,304305	721,483265	15,948	0,226929
4,294294	711,440208	16,049	0,222510
4,284339	701,096413	16,149	0,217959
4,274294	690,993430	16,249	0,213514
4,264286	680,408825	16,349	0,208856
4,254304	670,065030	16,451	0,204305
4,244257	661,465732	16,552	0,200521
4,234337	650,881126	16,653	0,195864
4,224266	640,957919	16,754	0,191498
4,214300	631,456410	16,855	0,187317
4,204319	620,871804	16,955	0,182660
4,194327	610,287198	17,056	0,178003
4,184343	600,725763	17,156	0,173796
4,174316	590,501820	17,258	0,169297
4,164305	580,518688	17,358	0,164905
4,154338	570,535556	17,458	0,160512
4,144311	560,372647	17,558	0,156041
4,134350	550,449441	17,658	0,151674
4,124368	545,517800	17,759	0,149504
4,114324	530,423251	17,860	0,142863
4,104329	520,440119	17,960	0,138470
4,094350	510,216175	18,060	0,133972
4,084306	499,812456	18,160	0,129394
4,074361	490,070135	18,261	0,125107
4,064323	479,967152	18,361	0,120662
4,054312	469,623358	18,463	0,116111
4,044320	459,881037	18,565	0,111824
4,034342	450,499379	18,665	0,107696
4,024339	439,673961	18,766	0,102933
4,014318	430,953702	18,867	0,099096
4,004275	420,790794	18,968	0,094625
3,994300	410,446999	19,068	0,090073
3,984339	400,945490	19,168	0,085893
3,974323	390,540661	19,269	0,081314
3,964313	379,535467	19,370	0,076472
3,954363	370,153809	19,471	0,072344
3,944346	360,110751	19,571	0,067925
3,934293	351,029830	19,672	0,063930
3,924348	340,866921	19,774	0,059458
3,914366	331,304377	19,874	0,055250
3,904320	321,681907	19,976	0,051017
3,894338	311,459073	20,077	0,046519
3,884306	301,896529	20,178	0,042311
3,874360	291,853471	20,279	0,037892
3,864328	282,351962	20,379	0,033711
3,854376	277,299361	20,479	0,031488
3,844356	268,219549	20,579	0,027493
3,834329	252,643377	20,681	0,020640
3,824384	243,201793	20,781	0,016485
3,814315	233,157626	20,881	0,012066
3,804290	223,536266	20,982	0,007833
3,794376	214,515270	21,082	0,003863
3,784354	203,930664	21,184	-0,000794
3,774332	194,429155	21,284	-0,004975
3,764313	185,647860	21,385	-0,008838
3,754394	174,823553	21,485	-0,013601
3,744357	166,224254	21,587	-0,017385
3,734325	155,338912	21,687	-0,022174
3,724358	144,393643	21,789	-0,026990
3,714324	136,214933	21,889	-0,030589
3,704371	126,953125	21,989	-0,034664
3,694409	116,429554	22,089	-0,039294
3,684373	106,986861	22,190	-0,043449
3,674357	96,523216	22,290	-0,048053
3,664382	87,141557	22,390	-0,052181
3,654377	76,437100	22,490	-0,056891
3,644385	67,656916	22,590	-0,060754
3,634386	56,891424	22,690	-0,065491
3,624398	47,750577	22,791	-0,069513
3,614372	38,489879	22,892	-0,073588
[...]
3,451938	-7,818049	0,936	-0,092905
3,461926	-7,997825	1,036	-0,092984
3,471899	-7,877974	1,137	-0,092931
3,481966	-7,877974	1,238	-0,092931
3,491961	-7,216575	1,338	-0,092640
3,501991	-7,517312	1,439	-0,092772
3,511939	-7,216575	1,539	-0,092640
3,521935	-7,457386	1,640	-0,092746
3,532001	-8,659224	1,740	-0,093275
3,541941	-8,539373	1,840	-0,093222
3,551911	-7,155540	1,941	-0,092613
3,561956	2,286044	2,041	-0,088459
3,571969	11,606667	2,143	-0,084358
3,581944	22,071422	2,243	-0,079753
3,591950	31,873668	2,343	-0,075440
3,601937	41,736950	2,443	-0,071101
3,611944	51,659047	2,543	-0,066735
3,621949	62,183727	2,643	-0,062104
3,631997	71,264648	2,743	-0,058108
3,642033	80,766158	2,843	-0,053928
3,651959	91,169877	2,944	-0,049350
3,661900	101,333896	3,045	-0,044878
3,671942	111,376953	3,145	-0,040459
3,681974	116,187633	3,246	-0,038342
3,691994	130,500932	3,346	-0,032044
3,701934	140,784801	3,446	-0,027520
3,711933	150,587047	3,546	-0,023207
3,721933	160,810991	3,646	-0,018708
3,731943	170,854048	3,746	-0,014289
3,741904	180,536444	3,847	-0,010029
3,751880	190,339799	3,947	-0,005715
3,761922	195,029519	4,149	-0,003652
3,771989	210,364879	4,250	0,003096
3,781950	220,107200	4,350	0,007382
3,791975	229,729670	4,451	0,011616
3,801993	239,292214	4,551	0,015824
3,811947	249,515048	4,652	0,020322
3,821916	259,679066	4,754	0,024794
3,831927	269,481312	4,855	0,029107
3,841911	279,946067	4,956	0,033711
3,851875	288,967063	5,056	0,037681
3,861944	299,370783	5,156	0,042258
3,871942	309,173029	5,257	0,046571
3,881981	318,855424	5,357	0,050832
3,891829	329,259144	5,457	0,055409
3,901921	338,520952	5,557	0,059484
3,911951	349,165483	5,657	0,064168
3,921908	358,547141	5,758	0,068296
3,931961	367,687988	5,858	0,072318
3,941957	378,212669	5,958	0,076949
3,951904	387,714178	6,058	0,081129
3,961917	398,057972	6,158	0,085681
3,971927	407,680442	6,258	0,089915
3,981912	417,602539	6,358	0,094280
3,991876	428,308105	6,458	0,098991
4,001912	437,148216	6,558	0,102880
4,011918	447,551935	6,658	0,107458
4,021943	456,752708	6,758	0,111506
4,031849	467,097612	6,858	0,116058
4,041846	477,139560	6,958	0,120477
4,051954	486,702104	7,059	0,124684
4,061819	496,384499	7,160	0,128944
4,071864	505,826083	7,261	0,133099
4,081858	516,109952	7,361	0,137624
4,091909	526,453746	7,463	0,142175
4,101924	536,076216	7,563	0,146409
4,111942	545,999423	7,663	0,150775
4,121815	556,222257	7,764	0,155273
4,131895	562,235884	7,865	0,157919
4,141861	575,286310	7,965	0,163661
4,151920	584,968706	8,065	0,167921
4,161866	594,711026	8,165	0,172208
4,171890	604,393422	8,265	0,176468
4,181903	615,278764	8,366	0,181258
4,191858	624,479537	8,466	0,185306
4,201948	634,222967	8,567	0,189593
4,211922	644,264915	8,669	0,194012
4,221863	654,068271	8,769	0,198325
4,231849	664,171254	8,870	0,202771
4,241864	674,154386	8,970	0,207163
4,251862	684,137518	9,070	0,211556
4,261870	694,421387	9,171	0,216081
4,271860	703,502308	9,272	0,220076
4,281861	713,605291	9,372	0,224521
4,291840	724,070046	9,473	0,229126
4,301879	733,511630	9,573	0,233280
4,311891	738,744007	9,678	0,235583
4,321833	753,537820	9,780	0,242092
4,331858	763,220215	9,880	0,246352
4,341852	773,142312	9,980	0,250718
4,351830	782,704856	10,080	0,254925
4,356810	793,228427	10,181	0,259556
4,356852	793,228427	10,282	0,259556
4,356774	793,168501	10,383	0,259529
4,356835	792,867765	10,483	0,259397
4,356804	792,807839	10,583	0,259371
4,356830	793,048651	10,684	0,259477
4,356793	793,168501	10,786	0,259529
4,356896	792,387251	10,887	0,259186
4,356857	792,567028	10,988	0,259265
4,356784	792,867765	11,088	0,259397
4,356825	793,409313	11,190	0,259635
4,356860	793,048651	11,291	0,259477
4,356809	792,747914	11,392	0,259344
4,356857	792,567028	11,492	0,259265
4,356816	792,387251	11,593	0,259186
4,356865	792,567028	11,695	0,259265
4,356787	792,687988	11,795	0,259318
4,356797	792,327326	11,895	0,259159
4,356820	792,687988	11,995	0,259318
4,356857	792,747914	12,095	0,259344
4,356847	792,086515	12,196	0,259053
4,356835	792,507102	12,296	0,259238
4,356820	791,965554	12,397	0,259000
4,356779	792,747914	12,497	0,259344
4,356798	792,626953	12,597	0,259291
4,356849	792,507102	12,697	0,259238
4,356820	792,447177	12,799	0,259212
4,356862	792,867765	12,899	0,259397
4,356826	792,747914	12,999	0,259344
4,356801	792,387251	13,100	0,259186
4,356884	792,626953	13,200	0,259291
4,356859	792,447177	13,300	0,259212
4,356827	792,507102	13,400	0,259238
4,356879	792,626953	13,500	0,259291
4,356840	792,807839	13,601	0,259371
4,356833	792,447177	13,701	0,259212
4,356802	791,485041	13,802	0,258789
4,356839	791,965554	13,903	0,259000
4,356800	792,327326	14,003	0,259159
4,356880	791,725852	14,104	0,258895
4,356842	792,266291	14,205	0,259132
4,356873	792,447177	14,306	0,259212
4,356846	792,026589	14,407	0,259027
4,356828	793,108576	14,507	0,259503
4,356846	792,867765	14,607	0,259397
4,356834	792,387251	14,707	0,259186
4,356723	792,626953	14,807	0,259291
4,356815	792,747914	14,907	0,259344
4,356843	792,567028	15,007	0,259265
4,356820	792,626953	15,108	0,259291
4,351845	792,567028	15,208	0,259265
4,341806	782,644931	15,309	0,254899
4,331864	772,300027	15,410	0,250347
4,321812	763,220215	15,510	0,246352
4,311792	752,034135	15,612	0,241430
4,301826	741,931152	15,712	0,236985
4,291857	732,187722	15,813	0,232698
4,281815	722,144664	15,914	0,228279
4,271804	712,764116	16,014	0,224151
4,261820	701,457076	16,115	0,219176
4,251774	696,887207	16,216	0,217166
4,241833	681,551847	16,316	0,210418
4,231852	671,989302	16,416	0,206210
4,221828	661,705433	16,516	0,201686
4,211821	651,722301	16,617	0,197293
4,201833	640,717108	16,718	0,192451
4,191859	631,456410	16,818	0,188376
4,181882	620,390181	16,919	0,183507
4,171858	610,828746	17,019	0,179300
4,161808	600,604803	17,119	0,174801
4,151868	590,681596	17,219	0,170435
4,141870	581,120162	17,319	0,166228
4,131839	571,377841	17,419	0,161941
4,121859	560,853161	17,519	0,157311
4,111827	551,170765	17,619	0,153050
4,101838	540,526234	17,720	0,148367
4,091857	530,664062	17,821	0,144027
4,081840	520,800781	17,921	0,139687
4,071862	510,216175	18,021	0,135030
4,061855	500,594815	18,123	0,130797
4,051847	490,972346	18,225	0,126563
4,041830	480,387740	18,326	0,121906
4,031957	471,006081	18,426	0,117778
4,021803	461,082875	18,527	0,113412
4,011859	450,679155	18,628	0,108834
4,001821	440,876909	18,729	0,104521
3,991890	430,772816	18,829	0,100075
3,981863	421,211381	18,929	0,095868
3,971884	410,747736	19,029	0,091264
3,961844	401,125266	19,129	0,087030
3,951877	391,202060	19,229	0,082664
3,941881	381,159002	19,330	0,078245
3,931936	370,875133	19,431	0,073720
3,921852	361,252663	19,531	0,069486
3,911888	351,811080	19,631	0,065332
3,901879	341,648171	19,731	0,060860
3,891857	332,025701	19,832	0,056626
3,881900	322,703968	19,932	0,052525
3,871942	311,999512	20,033	0,047815
3,861891	302,197266	20,133	0,043502
3,851894	292,815607	20,234	0,039374
3,841893	282,290927	20,335	0,034743
3,831879	272,969194	20,435	0,030642
3,821910	263,527610	20,536	0,026487
3,811916	253,484553	20,636	0,022068
3,801804	243,320534	20,736	0,017596
3,791853	233,217551	20,836	0,013151
3,781903	224,377441	20,937	0,009261
3,771911	215,236594	21,037	0,005239
3,761937	205,133612	21,137	0,000794
3,751884	195,270330	21,238	-0,003546
3,741917	185,828746	21,339	-0,007700
3,731845	175,965465	21,439	-0,012040
3,721814	165,983443	21,539	-0,016432
3,711920	157,203258	21,639	-0,020295
3,701880	145,475630	21,740	-0,025456
3,691863	136,334783	21,840	-0,029478
3,681894	126,411577	21,940	-0,033844
3,671866	116,007857	22,040	-0,038421
3,661887	107,347523	22,140	-0,042232
3,651933	96,943803	22,240	-0,046810
3,641889	87,080522	22,341	-0,051149
3,631987	77,579013	22,441	-0,055330
3,621924	67,476030	22,541	-0,059775
3,611875	58,034446	22,641	-0,063930
3,601842	47,991388	22,742	-0,068349
3,591940	38,488770	22,844	-0,072530
3,581860	28,566673	22,946	-0,076896
3,571911	18,944203	23,046	-0,081129
3,561947	8,359597	23,147	-0,085787
3,551852	-0,721325	23,247	-0,089782
3,541902	-10,463645	23,349	-0,094069
3,531908	-8,118786	23,450	-0,093037
3,521948	-7,757013	23,551	-0,092878
3,511880	-7,997825	23,652	-0,092984
3,501914	-8,599299	23,753	-0,093249
3,491940	-8,359597	23,854	-0,093143
3,481940	-8,359597	23,956	-0,093143
3,471909	-8,359597	24,056	-0,093143
3,461886	-8,359597	24,156	-0,093143
3,451976	-8,118786	24,257	-0,093037
3,442011	-8,238636	24,357	-0,093090
3,431969	-7,877974	24,458	-0,092931
3,421974	-7,637163	24,559	-0,092825
3,411934	-8,178711	24,659	-0,093063
3,401915	-7,637163	24,761	-0,092825
3,391977	-7,517312	24,861	-0,092772
3,381913	-7,457386	24,962	-0,092746
3,371971	-7,336426	25,063	-0,092693
3,361956	-7,276500	25,164	-0,092667
3,356976	-7,637163	25,214	-0,092825