File: Nanoindentation Datenauswertung/data/Test Measurement/partial unload on sapphire-3,50ms-2
Quasi static measurement routine
Tip parameters (shape,radius, material...)
28.06.2022

Piezo position[nm]	MEMS displ.[nm]	Time[ms]	Cap [pf]
eoh
4,299881	0,119851	0,060	-0,089227
4,312692	-9,141957	0,680	-0,093302
4,325590	-8,480558	1,335	-0,093011
4,338623	-8,961071	1,989	-0,093222
4,351590	-8,901145	2,643	-0,093196
4,364620	-9,622470	3,296	-0,093513
4,377622	-9,080922	3,949	-0,093275
4,390593	-8,961071	4,606	-0,093222
4,403622	3,187145	5,259	-0,087877
4,416578	15,996760	5,909	-0,082241
4,429600	28,625488	6,560	-0,076684
4,442626	41,495028	7,217	-0,071021
4,455614	54,726341	7,870	-0,065200
4,468611	67,835582	8,524	-0,059432
4,481666	81,005859	9,178	-0,053637
4,494623	93,454812	9,836	-0,048159
4,499599	99,890137	10,487	-0,045328
4,499552	99,168812	11,141	-0,045645
4,499606	99,468439	11,792	-0,045513
4,499567	99,769176	12,447	-0,045381
4,499631	99,950062	13,099	-0,045301
4,499541	99,769176	13,753	-0,045381
4,499540	99,769176	14,407	-0,045381
4,499561	100,190874	15,059	-0,045195
4,487614	89,305531	15,711	-0,049985
4,474615	75,533780	16,362	-0,056044
4,461620	62,062766	17,015	-0,061972
4,449646	49,434038	17,668	-0,067528
4,462575	60,739968	18,286	-0,062554
4,475520	74,691495	18,941	-0,056415
4,488581	87,321333	19,596	-0,050858
4,501592	100,370650	20,249	-0,045116
4,514609	113,901589	20,902	-0,039163
4,527562	125,328480	21,557	-0,034135
4,540576	138,799494	22,210	-0,028208
4,553570	151,849920	22,864	-0,022465
4,566578	164,779386	23,519	-0,016776
4,579528	178,250400	24,173	-0,010849
4,592511	190,518466	24,824	-0,005451
4,605569	204,230291	25,479	0,000582
4,618587	216,558283	26,133	0,006006
4,631518	228,827459	26,790	0,011405
4,644572	242,057662	27,446	0,017226
4,657501	255,588601	28,102	0,023180
4,670527	268,518066	28,756	0,028869
4,683514	281,207830	29,408	0,034452
4,696552	293,957520	30,060	0,040062
4,699517	297,024814	30,712	0,041412
4,699493	297,806064	31,365	0,041755
4,699517	297,324441	32,019	0,041543
4,699488	297,986950	32,671	0,041835
4,699536	297,445401	33,327	0,041597
4,699539	298,226651	33,979	0,041940
4,699483	297,865989	34,632	0,041782
4,698501	297,565252	35,286	0,041649
4,685504	284,755637	35,941	0,036013
4,672477	271,525435	36,593	0,030192
4,659585	258,896706	37,246	0,024635
4,646581	245,244806	37,903	0,018628
4,633488	232,375266	38,558	0,012966
4,620572	219,024103	39,209	0,007091
4,607560	206,876998	39,862	0,001747
4,603529	200,802335	40,478	-0,000926
4,616589	213,552024	41,130	0,004684
4,629540	226,241788	41,782	0,010267
4,642508	237,968306	42,437	0,015427
4,655552	251,919833	43,089	0,021565
4,668531	266,113281	43,743	0,027811
4,681564	278,201571	44,393	0,033129
4,694525	292,153098	45,053	0,039268
4,707525	304,661976	45,717	0,044772
4,720555	317,411665	46,373	0,050382
4,733531	331,423118	47,029	0,056547
4,746473	342,790083	47,682	0,061548
4,759552	356,321023	48,337	0,067502
4,772435	369,250488	48,989	0,073191
4,785494	382,179954	49,640	0,078880
4,798537	395,291415	50,294	0,084649
4,811464	407,980069	50,947	0,090232
4,824551	420,969460	51,600	0,095947
4,837455	433,599299	52,252	0,101504
4,850464	446,528764	52,906	0,107193
4,863449	458,917791	53,561	0,112645
4,876502	471,486594	54,215	0,118175
4,889419	484,897683	54,870	0,124076
4,899506	496,203613	55,523	0,129050
4,899407	496,082653	56,175	0,128997
4,899450	496,082653	56,826	0,128997
4,899454	496,263539	57,479	0,129077
4,899438	496,323464	58,131	0,129103
4,899450	496,082653	58,787	0,128997
4,899443	495,902876	59,440	0,128918
4,899440	496,022727	60,091	0,128971
4,892429	490,309837	60,742	0,126457
4,879491	476,838823	61,399	0,120530
4,866425	463,849432	62,055	0,114814
4,853470	450,918857	62,712	0,109125
4,840470	437,507768	63,371	0,103224
4,827491	424,337491	64,026	0,097429
4,814509	411,167214	64,681	0,091634
4,801501	397,937012	65,337	0,085813
4,788480	385,308283	65,987	0,080256
4,775479	371,957120	66,642	0,074382
4,762529	358,846768	67,293	0,068613
4,749557	345,856268	67,947	0,062897
4,761503	355,779474	68,566	0,067264
4,774443	369,130637	69,220	0,073138
4,787446	382,179954	69,872	0,078880
4,800485	395,531117	70,537	0,084754
4,813478	409,362793	71,191	0,090840
4,826464	421,631969	71,844	0,096239
4,839465	434,139737	72,497	0,101742
4,852442	447,490900	73,150	0,107617
4,865525	460,481401	73,803	0,113333
4,878459	472,267844	74,455	0,118519
4,891444	486,099521	75,114	0,124604
4,904400	499,030096	75,779	0,130294
4,917440	512,381259	76,432	0,136168
4,930430	525,972124	77,090	0,142148
4,943433	538,300115	77,744	0,147573
4,956418	551,470392	78,396	0,153368
4,969436	564,039196	79,057	0,158898
4,982377	576,669034	79,711	0,164455
4,995381	589,719460	80,368	0,170197
5,008420	602,768777	81,025	0,175939
5,021412	615,998979	81,678	0,181760
5,034428	628,748668	82,330	0,187370
5,047432	641,318581	82,984	0,192901
5,060342	654,248047	83,637	0,198590
5,073367	667,057662	84,290	0,204226
5,086345	680,168013	84,944	0,209995
5,099408	692,376154	85,600	0,215366
5,099396	693,818803	86,253	0,216001
5,099369	693,458141	86,906	0,215842
5,099335	693,157404	87,558	0,215710
5,099424	693,577992	88,214	0,215895
5,099342	693,818803	88,868	0,216001
5,099379	693,097479	89,522	0,215684
5,099358	693,938654	90,175	0,216054
5,095394	690,390847	90,827	0,214493
5,082365	676,799982	91,482	0,208513
5,069355	663,869407	92,138	0,202823
5,056340	651,240678	92,791	0,197267
5,043424	637,649814	93,451	0,191287
5,030393	625,982111	94,102	0,186153
5,017384	612,030584	94,757	0,180014
5,004427	598,559570	95,409	0,174087
4,991431	585,809881	96,062	0,168477
4,978478	572,518643	96,716	0,162629
4,965450	559,469327	97,367	0,156887
4,952420	546,538752	98,020	0,151198
4,939501	533,429510	98,672	0,145430
4,926430	520,739746	99,333	0,139846
4,913455	507,027921	99,987	0,133813
4,900405	493,797718	100,644	0,127992
4,910438	502,097390	101,258	0,131644
4,923416	515,628329	101,913	0,137597
4,936451	529,280229	102,566	0,143604
4,949413	542,269620	103,220	0,149319
4,962366	554,296875	103,874	0,154611
4,975405	567,588113	104,528	0,160459
4,988449	581,660600	105,183	0,166651
5,001394	592,966531	105,836	0,171626
5,014380	606,437544	106,513	0,177553
5,027441	620,149370	107,169	0,183586
5,040379	632,958984	107,823	0,189223
5,053435	646,249112	108,479	0,195070
5,066362	659,540350	109,131	0,200918
5,079364	672,469815	109,784	0,206607
5,092378	685,038619	110,436	0,212138
5,105372	698,268821	111,088	0,217959
5,118349	711,980646	111,742	0,223992
5,131378	724,009011	112,394	0,229285
5,144276	737,119363	113,048	0,235053
5,157373	749,988903	113,698	0,240716
5,170345	762,737482	114,351	0,246325
5,183358	775,847834	115,003	0,252094
5,196411	788,537598	115,657	0,257677
5,209324	801,707875	116,313	0,263472
5,222269	814,818226	116,965	0,269241
5,235357	827,446955	117,623	0,274797
5,248329	840,196644	118,279	0,280407
5,261287	852,946333	118,932	0,286017
5,274351	865,875799	119,586	0,291706
5,287319	879,286887	120,240	0,297607
5,299347	891,975542	120,892	0,303190
5,299335	891,975542	121,544	0,303190
5,299314	891,915616	122,198	0,303164
5,299312	891,975542	122,852	0,303190
5,299325	891,735840	123,505	0,303084
5,299342	891,674805	124,158	0,303058
5,299347	890,772594	124,809	0,302661
5,299315	891,375178	125,463	0,302926
5,294321	887,465598	126,117	0,301206
5,281349	873,753773	126,772	0,295172
5,268331	861,485707	127,425	0,289774
5,255335	848,315430	128,078	0,283979
5,242358	834,002131	128,733	0,277682
5,229392	821,914950	129,387	0,272363
5,216345	808,984375	130,037	0,266674
5,203351	796,415572	130,691	0,261144
5,190313	782,823597	131,343	0,255163
5,177308	769,413619	131,997	0,249263
5,164323	756,122381	132,650	0,243415
5,151383	743,373801	133,303	0,237805
5,138385	730,082564	133,956	0,231957
5,125409	717,272949	134,609	0,226321
5,112397	704,403409	135,262	0,220658
5,099419	692,074308	135,915	0,215233
5,086407	678,363592	136,569	0,209201
5,073427	664,892578	137,222	0,203273
5,060456	651,842152	137,874	0,197531
5,047385	638,731800	138,528	0,191763
5,034436	626,162997	139,181	0,186232
5,021374	612,150435	139,835	0,180067
5,008486	599,161044	140,488	0,174352
4,995394	586,411355	141,140	0,168742
4,982425	573,722701	141,796	0,163159
4,969472	560,973011	142,449	0,157549
4,956481	547,381037	143,100	0,151568
4,943479	534,993120	143,753	0,146118
4,930479	521,462180	144,407	0,140164
4,917497	507,930131	145,058	0,134210
4,904424	495,542214	145,710	0,128759
4,891486	482,131126	146,363	0,122858
4,878484	469,562322	147,014	0,117328
4,865420	456,211159	147,668	0,111454
4,852432	443,883168	148,321	0,106029
4,839525	431,434215	148,979	0,100552
4,826438	417,301802	149,630	0,094333
4,813488	404,131525	150,291	0,088539
4,800465	392,343972	151,060	0,083352
4,787515	378,090598	151,714	0,077081
4,774490	365,282093	152,373	0,071445
4,761528	352,893066	153,024	0,065994
4,748516	339,963601	153,677	0,060305
4,735431	327,033026	154,413	0,054615
4,722516	313,802823	155,067	0,048794
4,709525	302,136230	155,723	0,043661
4,696552	288,304554	156,378	0,037575
4,683550	275,674716	157,040	0,032018
4,670570	262,083851	157,693	0,026038
4,657515	249,214311	158,348	0,020375
4,644550	236,885210	159,003	0,014950
4,631552	224,256481	159,655	0,009394
4,618521	211,627752	160,307	0,003837
4,605563	200,682484	160,958	-0,000979
4,592556	187,090510	161,610	-0,006959
4,579592	174,822443	162,261	-0,012357
4,566557	163,275701	162,922	-0,017438
4,553582	149,624911	163,574	-0,023444
4,540563	136,152788	164,238	-0,029372
4,527561	123,645020	164,898	-0,034875
4,514583	111,255993	165,555	-0,040327
4,501536	99,288663	166,211	-0,045592
4,488525	85,817649	166,862	-0,051520
4,475539	73,549583	167,513	-0,056917
4,462596	62,182617	168,165	-0,061919
4,449581	47,930353	168,818	-0,068190
4,436566	35,601252	169,471	-0,073615
4,423552	22,490900	170,138	-0,079383
4,410578	9,862172	170,803	-0,084940
4,397609	-3,308105	171,457	-0,090735
4,384648	-15,636097	172,108	-0,096159
4,371595	-8,781294	172,765	-0,093143
4,358622	-9,502619	173,418	-0,093460
4,345602	-9,020996	174,071	-0,093249
4,332610	-9,321733	174,739	-0,093381
4,319666	-8,720259	175,397	-0,093116
4,306594	-9,502619	176,060	-0,093460
4,299623	-8,781294	176,416	-0,093143