File: Nanoindentation Datenauswertung/data/Test Measurement/partial unload on sapphire-4
Quasi static measurement routine
Tip parameters (shape,radius, material...)
11.07.2022

Piezo position[nm]	MEMS displ.[nm]	Time[ms]	Cap [pf]
eoh
2,069949	0,060754	0,175	-0,115291
2,095960	0,426402	0,840	-0,115132
2,121934	2,499910	1,506	-0,114232
2,147946	2,682172	2,168	-0,114153
2,173980	5,425097	2,843	-0,112962
2,199984	7,864253	3,532	-0,111904
2,225955	-3,719488	4,201	-0,116931
2,251968	-1,219578	4,886	-0,115846
2,277974	-1,586352	5,559	-0,116005
2,303942	14,814948	6,221	-0,108887
2,329982	32,618088	6,901	-0,101161
2,355972	49,873317	7,575	-0,093672
2,381961	64,932406	8,232	-0,087136
2,408002	79,443584	8,889	-0,080838
2,433884	93,161587	9,575	-0,074885
2,459980	109,502133	10,239	-0,067793
2,469946	114,744969	10,900	-0,065518
2,469987	114,195934	11,569	-0,065756
2,469944	114,135180	12,235	-0,065782
2,469953	113,403883	12,894	-0,066100
2,469970	113,403883	13,552	-0,066100
2,469970	113,220496	14,220	-0,066179
2,469893	113,098988	14,871	-0,066232
2,469976	112,611832	15,531	-0,066443
2,445894	95,966392	16,202	-0,073667
2,419899	76,455393	16,863	-0,082135
2,393989	59,079781	17,528	-0,089676
2,369900	41,337396	18,182	-0,097376
2,395943	59,201289	18,827	-0,089624
2,421966	78,651534	19,479	-0,081182
2,447955	97,551618	20,134	-0,072979
2,473934	116,146808	20,807	-0,064909
2,499952	132,548108	21,483	-0,057791
2,525987	146,693638	22,160	-0,051652
2,551955	163,521340	22,825	-0,044349
2,577925	179,311726	23,505	-0,037496
2,603968	194,555327	24,161	-0,030880
2,629952	209,431029	24,851	-0,024424
2,655905	225,832328	25,506	-0,017306
2,681951	243,086433	26,169	-0,009817
2,707954	260,097521	26,833	-0,002435
2,733947	276,925223	27,490	0,004869
2,759926	294,241206	28,145	0,012384
2,785965	311,495311	28,816	0,019872
2,811969	329,359204	29,471	0,027625
2,837899	345,638996	30,126	0,034690
2,863993	364,173432	30,802	0,042734
2,869954	366,550709	31,457	0,043766
2,869955	366,673342	32,121	0,043819
2,869969	365,697905	32,789	0,043396
2,869937	365,575272	33,448	0,043343
2,869950	365,637151	34,107	0,043370
2,869939	365,637151	34,766	0,043370
2,869902	366,185061	35,426	0,043607
2,867970	365,148870	36,091	0,043158
2,841944	345,943890	36,802	0,034823
2,815921	328,078872	37,458	0,027069
2,789943	309,300295	38,126	0,018919
2,763921	290,460965	38,790	0,010743
2,737938	272,474438	39,458	0,002937
2,711937	253,330213	40,114	-0,005372
2,685945	235,343687	40,776	-0,013178
2,677973	230,038972	41,424	-0,015480
2,703958	248,208885	42,080	-0,007594
2,730009	266,987462	42,751	0,000556
2,755933	284,912109	43,425	0,008335
2,781978	303,752565	44,094	0,016512
2,807974	322,042861	44,774	0,024450
2,833984	340,944070	45,428	0,032653
2,859940	358,991350	46,100	0,040485
2,885984	377,648419	46,755	0,048583
2,911957	396,061348	47,415	0,056574
2,937969	413,315452	48,104	0,064062
2,963915	430,997084	48,765	0,071736
2,989899	449,348133	49,436	0,079700
3,015940	467,518046	50,105	0,087586
3,041919	485,137799	50,773	0,095233
3,067890	503,429219	51,426	0,103171
3,093943	521,050097	52,122	0,110819
3,119956	539,461901	52,781	0,118810
3,145855	558,363110	53,448	0,127013
3,171936	575,739847	54,121	0,134554
3,197910	594,152776	54,781	0,142545
3,223920	612,077423	55,453	0,150325
3,249888	630,551105	56,129	0,158342
3,269873	644,391741	56,789	0,164349
3,269858	644,391741	57,444	0,164349
3,269852	643,965339	58,126	0,164164
3,269869	643,965339	58,782	0,164164
3,269878	643,842706	59,439	0,164111
3,269865	643,781952	60,113	0,164084
3,269862	644,330987	60,786	0,164323
3,269877	643,477058	61,439	0,163952
3,255866	633,721558	62,103	0,159718
3,229934	615,431263	62,775	0,151780
3,203893	596,530053	63,429	0,143577
3,177839	578,300511	64,083	0,135666
3,151897	559,887583	64,749	0,127674
3,125910	540,925619	65,410	0,119445
3,099931	522,756831	66,085	0,111560
3,073983	503,794868	66,776	0,103330
3,047923	486,418131	67,434	0,095789
3,021944	467,152398	68,087	0,087427
2,995940	448,800223	68,758	0,079462
2,969867	430,326541	69,428	0,071445
2,993904	447,519891	70,123	0,078907
3,019863	466,969011	70,796	0,087348
3,045894	485,381939	71,462	0,095339
3,071914	502,942063	72,137	0,102960
3,097883	521,659886	72,830	0,111083
3,123906	540,315830	73,495	0,119180
3,149907	558,545372	74,151	0,127092
3,175952	576,776039	74,804	0,135004
3,201942	595,188967	75,461	0,142995
3,227854	614,211685	76,121	0,151251
3,253904	632,503105	76,790	0,159189
3,279888	650,611139	77,447	0,167048
3,305928	669,024068	78,100	0,175040
3,331931	687,558504	78,761	0,183083
3,357869	705,545030	79,424	0,190890
3,383880	724,141345	80,093	0,198960
3,409870	742,675781	80,748	0,207004
3,435829	760,418167	81,400	0,214705
3,461821	778,465447	82,064	0,222537
3,487830	796,816496	82,742	0,230501
3,513856	814,924530	83,423	0,238360
3,539865	832,484654	84,100	0,245981
3,565844	850,774950	84,755	0,253919
3,591843	868,944862	85,405	0,261805
3,617806	886,625369	86,056	0,269479
3,643779	906,136368	86,710	0,277946
3,669800	923,878753	87,380	0,285646
3,669838	924,367034	88,052	0,285858
3,669855	924,367034	88,707	0,285858
3,669779	924,183648	89,384	0,285779
3,669807	924,793437	90,051	0,286043
3,669820	924,061015	90,706	0,285726
3,669799	924,061015	91,362	0,285726
3,669848	924,305156	92,014	0,285832
3,661787	918,147636	92,698	0,283159
3,635890	898,515130	93,367	0,274639
3,609845	879,066010	94,043	0,266198
3,583805	859,920660	94,700	0,257889
3,557792	840,715681	95,355	0,249554
3,531821	822,119366	96,028	0,241483
3,505795	803,158527	96,684	0,233254
3,479808	784,806353	97,354	0,225289
3,453857	766,149284	98,006	0,217192
3,427896	747,126566	98,665	0,208936
3,401826	728,835145	99,340	0,200998
3,375823	710,848619	100,001	0,193191
3,349841	692,192675	100,658	0,185095
3,323867	674,084641	101,325	0,177236
3,297835	655,793221	102,002	0,169297
3,271900	636,770503	102,682	0,161042
3,291928	651,220928	103,342	0,167313
3,317856	669,816118	104,004	0,175383
3,343886	688,717328	104,668	0,183586
3,369892	706,641975	105,349	0,191366
3,395863	725,116782	106,006	0,199384
3,421900	743,834605	106,669	0,207507
3,447880	761,942639	107,324	0,215366
3,473880	780,354443	107,997	0,223357
3,499856	799,499793	108,665	0,231666
3,525884	817,912721	109,321	0,239657
3,551897	836,447158	109,989	0,247701
3,577825	855,897402	110,654	0,256143
3,603865	875,956311	111,335	0,264848
3,629820	894,918275	112,016	0,273078
3,655827	914,549656	112,667	0,281598
3,681800	934,060655	113,330	0,290065
3,707792	952,839232	114,023	0,298215
3,733807	972,715879	114,710	0,306842
3,759810	992,348385	115,391	0,315362
3,785852	1011,736751	116,086	0,323777
3,811824	1031,673027	116,739	0,332429
3,837863	1051,244780	117,427	0,340923
3,863835	1071,365567	118,120	0,349656
3,889808	1091,424476	118,795	0,358361
3,915810	1111,483385	119,453	0,367067
3,941805	1130,627610	120,149	0,375375
3,967811	1150,869906	120,821	0,384161
3,993753	1170,258272	121,476	0,392575
4,019780	1190,682829	122,159	0,401439
4,045762	1210,682109	122,836	0,410119
4,069805	1229,033158	123,502	0,418083
4,069759	1228,606756	124,168	0,417898
4,069794	1228,850896	124,832	0,418004
4,069793	1228,485248	125,506	0,417846
4,069751	1228,667510	126,180	0,417925
4,069795	1228,546002	126,866	0,417872
4,069793	1228,424494	127,527	0,417819
4,069825	1227,814705	128,183	0,417555
4,059814	1220,741377	128,847	0,414485
4,033810	1200,133434	129,516	0,405541
4,007801	1180,136404	130,173	0,396862
3,981785	1160,015616	130,826	0,388130
3,955797	1139,163531	131,484	0,379080
3,929834	1119,288009	132,169	0,370454
3,903846	1099,227976	132,825	0,361748
3,877854	1079,473961	133,484	0,353175
3,851780	1059,415053	134,137	0,344469
3,825835	1038,928616	134,791	0,335578
3,799853	1019,905899	135,488	0,327322
3,773819	1000,091131	136,162	0,318723
3,747868	980,519378	136,846	0,310229
3,721847	960,704610	137,505	0,301629
3,695879	941,255490	138,201	0,293188
3,669808	921,622984	138,862	0,284667
3,643823	903,392317	139,543	0,276755
3,617855	883,394162	140,223	0,268076
3,591844	864,249937	140,922	0,259768
3,565871	844,922325	141,598	0,251379
3,539803	826,082994	142,254	0,243203
3,513869	807,060277	142,934	0,234947
3,487908	788,585469	143,612	0,226929
3,461877	769,867647	144,281	0,218806
3,435901	751,882245	144,936	0,211000
3,409899	733,103669	145,612	0,202850
3,383905	715,056389	146,282	0,195018
3,357921	696,643460	146,951	0,187026
3,331896	678,107899	147,638	0,178982
3,305868	659,694970	148,299	0,170991
3,279975	641,099780	149,014	0,162920
3,253913	622,991746	149,678	0,155062
3,227905	604,395431	150,344	0,146991
3,201912	585,860995	151,009	0,138947
3,175917	568,910660	151,681	0,131590
3,149987	549,035138	152,341	0,122964
3,123915	531,230874	153,032	0,115237
3,097920	512,514176	153,694	0,107114
3,071982	493,796353	154,357	0,098991
3,045939	475,139284	155,039	0,090894
3,019955	456,847863	155,715	0,082955
2,993959	439,167357	156,394	0,075282
2,967994	420,022006	157,061	0,066973
2,941917	401,304183	157,745	0,058849
2,915934	383,256903	158,412	0,051017
2,889970	363,807784	159,079	0,042576
2,863944	346,370293	159,756	0,035008
2,837978	328,749415	160,436	0,027360
2,812006	308,264104	161,118	0,018470
2,785970	290,765859	161,799	0,010875
2,759980	272,230298	162,457	0,002831
2,733954	254,305651	163,151	-0,004948
2,707934	235,831968	163,813	-0,012966
2,681967	217,114145	164,483	-0,021089
2,655980	198,517830	165,156	-0,029160
2,629955	179,860761	165,818	-0,037257
2,603972	161,691973	166,513	-0,045143
2,578003	142,974150	167,168	-0,053266
2,551981	124,561222	167,853	-0,061257
2,526029	106,453188	168,519	-0,069116
2,499982	87,491224	169,174	-0,077346
2,473975	68,834155	169,854	-0,085443
2,448009	50,481981	170,514	-0,093408
2,421960	33,045615	171,207	-0,100975
2,395981	14,265913	171,865	-0,109125
2,369960	-4,512664	172,533	-0,117275
2,343979	-23,473502	173,229	-0,125504
2,318001	-42,191325	173,909	-0,133628
2,291957	-60,482746	174,599	-0,141566
2,265962	-22,437311	175,282	-0,125055
2,240018	-25,547010	175,960	-0,126404
2,213941	-31,643775	176,643	-0,129050
2,187980	-35,484771	177,329	-0,130717
2,161967	-26,522447	178,024	-0,126828
2,135982	-12,499550	178,709	-0,120742
2,109962	-4,085136	179,404	-0,117090
2,083971	-1,158824	180,099	-0,115820
2,069963	-0,306020	180,475	-0,115450