File: Nanoindentation Datenauswertung/data/Test Measurement/test partial unload on saphire-1
Quasi static measurement routine
Tip parameters (shape,radius, material...)
09.05.2022

Piezo position[nm]	MEMS displ.[nm]	Time[ms]
eoh
2,814031	0,000000	0,00
2,834050	1,683461	0,06
2,854036	11,666593	0,56
2,874041	26,159668	1,06
2,893990	42,638050	1,56
2,914005	59,837757	2,06
2,934038	76,856578	2,56
2,953999	94,958496	3,06
2,973998	112,940563	3,56
2,993963	129,658647	4,07
3,013952	148,061301	4,57
3,034027	166,102184	5,07
3,053973	185,287198	5,57
3,073949	202,907493	6,07
3,093931	223,234419	6,57
3,113904	243,260609	7,07
3,133911	264,729448	7,57
3,153961	283,673651	8,07
3,153935	304,241388	8,57
3,153904	304,120428	9,07
3,153901	303,339178	9,57
3,153898	303,759766	10,07
3,153891	303,699840	10,57
3,153884	303,218217	11,07
3,153937	302,556818	11,57
3,153887	302,857555	12,07
3,153853	302,556818	12,57
3,153910	302,737704	13,07
3,133898	303,038441	13,57
3,113893	282,229892	14,07
3,093872	261,783114	14,57
3,073931	241,215376	15,07
3,073933	221,790661	15,57
3,093946	221,069336	15,64
3,113877	241,997736	16,14
3,133935	261,663263	16,64
3,153914	282,831365	17,14
3,173965	302,677779	17,65
3,193981	322,463157	18,15
3,213948	342,549272	18,65
3,233965	364,740545	19,15
3,254034	385,668945	19,65
3,273974	407,198819	20,15
3,293941	428,788619	20,65
3,313954	450,858931	21,15
3,333992	471,847257	21,65
3,353950	493,496982	22,15
3,373927	515,327592	22,65
3,393940	537,819602	23,15
3,413886	559,228516	23,65
3,433949	580,337802	24,15
3,453941	602,348189	24,65
3,473901	624,660423	25,15
3,493861	646,069336	25,65
3,493782	667,599210	26,15
3,493856	667,478249	26,65
3,493812	668,019798	27,15
3,493874	667,418324	27,65
3,493801	667,899947	28,15
3,493853	667,177512	28,65
3,493854	667,599210	29,15
3,493846	667,478249	29,65
3,493875	667,899947	30,15
3,493825	667,478249	30,65
3,473834	667,719061	31,15
3,453813	645,587713	31,65
3,433823	624,118874	32,15
3,413863	601,686790	32,65
3,393841	579,736328	33,15
3,373833	558,026678	33,65
3,353824	537,037243	34,15
3,333903	514,305531	34,65
3,313831	493,136319	35,15
3,313888	471,006081	35,65
3,333865	470,103871	35,72
3,353883	492,355069	36,22
3,373870	514,666193	36,72
3,393829	536,676580	37,22
3,413923	558,266380	37,72
3,433847	580,096990	38,22
3,453911	601,746715	38,72
3,473846	623,697177	39,22
3,493900	645,286976	39,72
3,513925	667,599210	40,22
3,533929	690,151145	40,72
3,553891	711,199396	41,22
3,573844	732,428533	41,72
3,593854	755,220170	42,22
3,613881	776,750044	42,72
3,633873	798,460804	43,22
3,653855	820,411266	43,72
3,673889	841,820179	44,22
3,693859	864,132413	44,72
3,713869	885,420366	45,22
3,733828	907,852450	45,72
3,753883	929,502175	46,23
3,773845	950,972124	46,73
3,793807	973,223322	47,23
3,813871	994,572310	47,73
3,833854	1016,042259	48,23
3,833764	1038,353382	48,73
3,833819	1039,074707	49,23
3,833876	1038,594194	49,73
3,833801	1038,533159	50,23
3,833807	1038,233532	50,73
3,833821	1037,992720	51,23
3,833795	1038,594194	51,73
3,833786	1038,413308	52,23
3,833824	1038,533159	52,73
3,833790	1038,353382	53,23
3,813816	1038,233532	53,73
3,793800	1016,342995	54,23
3,773747	994,031871	54,73
3,753767	972,321112	55,23
3,733757	950,912198	55,73
3,713787	928,179377	56,23
3,693751	906,048029	56,73
3,673795	884,879927	57,23
3,653771	862,868430	57,73
3,633785	841,399592	58,23
3,613754	818,967507	58,73
3,593855	796,957120	59,23
3,573811	774,765847	59,73
3,553809	752,634499	60,23
3,533806	732,006836	60,73
3,513773	709,275124	61,23
3,493759	687,745250	61,73
3,473785	665,012429	62,23
3,453817	643,603516	62,73
3,433843	621,772905	63,24
3,413889	599,762518	63,74
3,393764	577,511319	64,24
3,373828	556,642844	64,74
3,353811	534,752308	65,24
3,333857	512,561035	65,74
3,313840	490,791460	66,24
3,293881	468,118564	66,74
3,273825	446,889426	67,24
3,253840	424,699263	67,74
3,233843	403,709828	68,24
3,213887	381,820401	68,74
3,193841	360,169567	69,24
3,173880	338,640803	69,74
3,153926	317,651367	70,24
3,133821	297,746138	70,74
3,113924	277,960760	71,24
3,093898	257,573908	71,74
3,073939	237,788530	72,24
3,053879	217,581454	72,74
3,033810	196,172541	73,24
3,013819	176,867676	73,74
2,993905	158,345170	74,24
2,973880	139,701705	74,74
2,953878	122,261186	75,24
2,933900	105,302290	75,74
2,913864	87,381259	76,24
2,893859	70,723100	76,74
2,873891	54,485529	77,24
2,853948	37,766335	77,74
2,833933	21,108176	78,24
2,813910	7,216575	78,74