File: Nanoindentation Datenauswertung/data/Test Measurement/test on saphire
Quasi static measurement routine
Tip parameters (shape,radius, material...)
04.05.2022

Piezo position[nm]	MEMS displ.[nm]	Time[ms]
eoh
5,203327	0,464977	0,00
5,205273	0,601474	257,00
5,207335	2,045233	627,00
5,209238	2,405895	900,00
5,211310	4,390092	1190,00
5,213304	5,652965	1488,00
5,215321	6,555176	1759,00
5,217304	8,540483	2044,00
5,219342	9,682395	2354,00
5,221312	12,268066	2644,00
5,223321	13,170277	2950,00
5,225283	14,914773	3220,00
5,227286	16,056685	3561,00
5,229334	17,741255	3847,00
5,231300	19,846413	4145,00
5,233298	21,348988	4418,00
5,235265	22,792747	4718,00
5,237283	24,776944	5015,00
5,239305	26,401589	5316,00
5,241294	28,264826	5620,00
5,243300	29,829545	5920,00
5,245290	31,692782	6209,00
5,247327	33,256392	6481,00
5,249296	34,158603	6773,00
5,251299	36,323686	7047,00
5,253252	38,068182	7320,00
5,255230	39,811568	7634,00
5,257307	42,036577	7933,00
5,259306	43,299450	8198,00
5,261291	45,404608	8476,00
5,263250	46,788441	8735,00
5,265290	48,832564	8999,00
5,267331	50,095437	9284,00
5,269301	51,539196	9592,00
5,271257	52,861994	9853,00
5,273341	55,327814	10137,00
5,275274	56,349876	10395,00
5,277328	58,514959	10692,00
5,279289	60,439231	10997,00
5,281222	62,123801	11274,00
5,283284	63,747337	11565,00
5,285301	65,370872	11858,00
5,287281	67,115368	12147,00
5,289312	68,979714	12442,00
5,291220	70,242587	12741,00
5,293257	72,647372	13019,00
5,295304	74,391868	13281,00
5,297203	75,413929	13570,00
5,299231	77,879750	13865,00
5,301245	79,924982	14170,00
5,303282	81,247781	14477,00
5,305278	83,112127	14764,00
5,307271	84,674627	15031,00
5,309202	86,659934	15298,00
5,311319	88,944869	15584,00
5,313258	89,787154	15900,00
5,315298	91,531650	16179,00
5,317269	92,854448	16447,00
5,319294	94,537908	16743,00
5,321211	96,522106	17040,00
5,323248	98,808150	17346,00
5,325242	99,950062	17613,00
5,327250	101,574707	17898,00
5,329295	103,618830	18157,00
5,331230	105,001554	18434,00
5,333252	107,046786	18716,00
5,335262	108,249734	18996,00
5,337284	110,114080	19266,00
5,339263	112,098278	19549,00
5,341293	114,444247	19822,00
5,343278	115,886896	20091,00
5,345225	117,872203	20355,00
5,347241	119,856401	20648,00
5,349289	121,660822	20960,00
5,351311	123,704945	21225,00
5,353269	125,088778	21505,00
5,355244	127,013050	21766,00
5,357232	128,937322	22063,00
5,359217	131,102406	22335,00
5,361250	132,546165	22614,00
5,363165	134,891025	22920,00
5,365189	136,334783	23187,00
5,367250	137,537731	23466,00
5,369222	140,484064	23746,00
5,371228	141,746937	24019,00
5,373232	143,370472	24294,00
5,375312	145,716442	24587,00
5,377227	147,219016	24876,00
5,379308	149,204324	25154,00
5,381276	151,008745	25431,00
5,383290	152,150657	25699,00
5,385275	153,955078	25995,00
5,387230	155,939276	26295,00
5,389240	157,502885	26600,00
5,391233	159,548118	26880,00
5,393254	161,291504	27152,00
5,395206	164,238947	27448,00
5,397217	165,742631	27763,00
5,399216	167,306241	28054,00
5,401204	168,748890	28315,00
5,403231	170,913974	28607,00
5,403239	171,455522	28910,00
5,403200	171,094860	29177,00
5,403248	171,214711	29467,00
5,403258	171,515447	29735,00
5,403212	171,997070	30065,00
5,403249	171,455522	30361,00
5,403228	171,214711	30629,00
5,403198	171,274636	30976,00
5,403190	171,214711	31261,00
5,403250	171,395597	31527,00
5,403234	171,214711	31816,00
5,403240	171,575373	32100,00
5,403237	171,034934	32405,00
5,403266	170,132724	32695,00
5,403229	170,733088	32985,00
5,403296	170,673162	33285,00
5,403257	171,334561	33571,00
5,403232	171,094860	33850,00
5,403186	170,673162	34141,00
5,403251	170,553311	34450,00
5,403231	171,515447	34741,00
5,403259	171,214711	35044,00
5,403267	171,214711	35314,00
5,403252	171,395597	35596,00
5,403229	171,334561	35863,00
5,403209	171,756259	36148,00
5,403150	170,973899	36450,00
5,403219	171,515447	36752,00
5,403262	171,274636	37042,00
5,403284	170,794123	37317,00
5,403247	170,913974	37611,00
5,403198	171,094860	37892,00
5,403212	171,455522	38154,00
5,403236	171,034934	38419,00
5,403248	171,274636	38704,00
5,403210	170,973899	38965,00
5,403252	170,192649	39260,00
5,403198	171,094860	39527,00
5,403299	170,854048	39824,00
5,403238	170,493386	40081,00
5,403242	170,913974	40371,00
5,403210	170,794123	40659,00
5,403274	171,274636	40927,00
5,403196	170,493386	41190,00
5,403215	170,854048	41466,00
5,403258	170,673162	41742,00
5,403215	170,913974	42025,00
5,403214	170,132724	42330,00
5,403266	170,854048	42598,00
5,403214	170,794123	42881,00
5,401237	169,471325	43184,00
5,399234	168,147417	43470,00
5,397240	166,103294	43735,00
5,395270	164,179022	44027,00
5,393200	162,735263	44297,00
5,391276	160,751065	44592,00
5,389220	159,006570	44892,00
5,387227	156,721635	45194,00
5,385192	155,038175	45496,00
5,383283	153,654341	45787,00
5,381269	151,730069	46057,00
5,379240	149,204324	46342,00
5,377242	147,640714	46614,00
5,375216	145,956143	46901,00
5,373235	143,551358	47195,00
5,371215	142,589222	47475,00
5,369277	138,920455	47761,00
5,367307	137,837358	48049,00
5,365267	135,552424	48369,00
5,363292	133,928888	48666,00
5,361270	132,305353	48947,00
5,359292	130,620783	49211,00
5,357272	128,636586	49500,00
5,355201	126,953125	49796,00
5,353240	125,208629	50074,00
5,351231	123,405318	50372,00
5,349217	121,300160	50661,00
5,347280	119,916326	50965,00
5,345197	117,751243	51234,00
5,343251	115,826971	51530,00
5,341281	113,962624	51814,00
5,339273	111,617765	52106,00
5,337264	110,534668	52377,00
5,335246	107,769221	52673,00
5,333243	106,566273	52947,00
5,331244	104,580966	53241,00
5,329268	103,198242	53524,00
5,327187	101,754483	53825,00
5,325266	99,650435	54103,00
5,323278	97,244540	54389,00
5,321357	95,380194	54718,00
5,319296	94,959606	54997,00
5,317270	92,673562	55281,00
5,315291	90,087891	55581,00
5,313252	89,004794	55857,00
5,311237	87,862882	56130,00
5,309302	84,674627	56409,00
5,307260	83,231978	56689,00
5,305259	82,149991	56996,00
5,303310	79,804022	57279,00
5,301286	78,421298	57585,00
5,299308	76,316140	57853,00
5,297346	75,233043	58136,00
5,295252	72,768333	58419,00
5,293267	71,685236	58738,00
5,291271	70,001776	59013,00
5,289290	67,956543	59310,00
5,287233	66,874556	59609,00
5,285316	64,829324	59929,00
5,283310	62,725275	60214,00
5,281273	60,799893	60513,00
5,279229	58,755771	60779,00
5,277271	56,650613	61060,00
5,275252	55,809437	61320,00
5,273309	52,802069	61591,00
5,271260	51,358310	61869,00
5,269278	49,674849	62139,00
5,267269	48,591752	62441,00
5,265334	47,149103	62748,00
5,263264	45,886230	63037,00
5,261225	44,021884	63324,00
5,259251	41,796875	63678,00
5,257321	41,014515	63936,00
5,255280	38,669656	64233,00
5,253266	36,805309	64520,00
5,251309	36,082875	64786,00
5,249273	33,797940	65048,00
5,247253	31,873668	65331,00
5,245262	29,888361	65604,00
5,243249	29,347923	65898,00
5,241273	27,603427	66189,00
5,239280	26,160778	66464,00
5,237261	23,573997	66740,00
5,235200	21,950462	67010,00
5,233294	21,649725	67299,00
5,231277	19,064054	67597,00
5,229304	17,500444	67905,00
5,227222	15,215510	68190,00
5,225264	14,673961	68506,00
5,223304	12,508878	68772,00
5,221284	10,765492	69058,00
5,219266	9,802246	69323,00
5,217303	8,359597	69609,00
5,215339	6,254439	69902,00
5,213332	5,111417	70177,00
5,211268	4,029430	70474,00
5,209345	2,045233	70757,00
5,207295	1,623535	71023,00
5,205251	0,240811	71318,00
5,203310	-0,782360	71583,00