File: Nanoindentation Datenauswertung/data/1,9um
Quasi static measurement routine
Tip parameters (shape,radius, material...)
11.07.2022

Piezo position[nm]	MEMS displ.[nm]	Time[ms]	Cap [pf]
eoh
2,342005	-0,365648	0,188	-0,098355
2,358025	-0,183387	0,598	-0,098276
2,374042	-0,975437	1,002	-0,098620
2,390046	-1,098070	1,402	-0,098673
2,406047	-1,645980	1,809	-0,098911
2,422032	-2,073508	2,211	-0,099097
2,438055	-2,134262	2,613	-0,099123
2,454048	-3,048945	3,014	-0,099520
2,470027	-3,658734	3,416	-0,099785
2,486013	-6,340906	3,818	-0,100949
2,502021	-7,377097	4,218	-0,101398
2,518047	-7,560484	4,623	-0,101478
2,534073	-8,535921	5,027	-0,101901
2,550016	-9,024203	5,428	-0,102113
2,566020	-14,083651	5,832	-0,104309
2,582015	-9,206464	6,232	-0,102192
2,598065	0,121508	6,634	-0,098144
2,614045	10,975077	7,040	-0,093434
2,630000	22,132416	7,447	-0,088591
2,646038	32,375072	7,851	-0,084146
2,661998	42,252079	8,252	-0,079859
2,678052	51,580051	8,654	-0,075811
2,694044	60,604254	9,056	-0,071895
2,710028	69,627331	9,458	-0,067979
2,726032	78,407393	9,858	-0,064168
2,742023	87,857998	10,259	-0,060066
2,758016	96,820322	10,668	-0,056177
2,774030	106,270926	11,070	-0,052075
2,790047	115,477391	11,474	-0,048080
2,806016	124,683855	11,875	-0,044084
2,822037	133,402038	12,284	-0,040300
2,838004	142,182100	12,686	-0,036490
2,854009	151,570826	13,091	-0,032415
2,870018	158,582274	13,501	-0,029372
2,886014	165,837864	13,911	-0,026223
2,901993	174,922820	14,312	-0,022280
2,918033	184,312671	14,714	-0,018205
2,934033	192,055417	15,115	-0,014845
2,950007	199,860041	15,516	-0,011458
2,966002	207,968435	15,920	-0,007938
2,982047	215,040638	16,321	-0,004869
2,997998	221,930579	16,724	-0,001879
3,014002	229,125414	17,132	0,001244
3,029983	238,026984	17,543	0,005107
3,045997	246,258011	17,947	0,008679
3,061976	255,098826	18,357	0,012516
3,078019	264,487552	18,759	0,016591
3,094009	274,547946	19,168	0,020957
3,110025	283,754410	19,570	0,024953
3,125942	289,364019	19,972	0,027387
3,142021	295,643046	20,375	0,030112
3,157944	303,447671	20,776	0,033500
3,173992	312,409994	21,176	0,037389
3,190032	321,860599	21,576	0,041491
3,205947	329,176942	21,976	0,044666
3,221988	333,871868	22,381	0,046704
3,237952	342,712684	22,781	0,050541
3,253990	351,675007	23,181	0,054430
3,269983	360,576577	23,583	0,058293
3,285976	368,381201	23,987	0,061681
3,301970	372,953494	24,394	0,063665
3,318003	377,587666	24,796	0,065676
3,333943	384,659868	25,196	0,068746
3,349988	390,817387	25,605	0,071418
3,365973	399,597449	26,006	0,075229
3,381962	405,633461	26,418	0,077848
3,397938	412,157753	26,819	0,080680
3,414024	420,266147	27,224	0,084199
3,429927	427,887385	27,626	0,087506
3,445915	434,959587	28,028	0,090576
3,461951	444,776966	28,430	0,094836
3,477897	454,165692	28,830	0,098911
3,493924	463,616296	29,232	0,103013
3,509927	473,981585	29,633	0,107511
3,525873	484,955537	30,034	0,112274
3,541878	496,661911	30,444	0,117354
3,557943	507,392848	30,864	0,122012
3,573947	519,281484	31,270	0,127171
3,589950	530,622210	31,680	0,132093
3,605925	542,145197	32,081	0,137094
3,621917	553,181029	32,483	0,141884
3,637843	564,461001	32,884	0,146779
3,653897	574,764410	33,287	0,151251
3,669896	586,165890	33,689	0,156199
3,685893	595,921389	34,106	0,160433
3,701845	606,103291	34,521	0,164852
3,717911	617,991926	34,927	0,170012
3,733897	628,906250	35,329	0,174749
3,749953	639,819448	35,731	0,179485
3,765829	650,855280	36,136	0,184274
3,781915	662,073373	36,538	0,189143
3,797901	673,718993	36,939	0,194197
3,813926	684,754824	37,348	0,198987
3,829932	696,460073	37,782	0,204067
3,845924	708,593975	38,188	0,209333
3,861863	720,300349	38,593	0,214414
3,877924	731,884091	38,999	0,219441
3,893919	743,285570	39,400	0,224389
3,909876	755,296839	39,801	0,229602
3,925833	766,454178	40,202	0,234444
3,941875	779,135990	40,605	0,239948
3,957882	790,476716	41,016	0,244870
3,973907	802,487984	41,424	0,250083
3,989911	814,132479	41,867	0,255137
4,005881	825,778100	42,268	0,260191
4,021889	838,032384	42,680	0,265509
4,037891	848,763321	43,081	0,270167
4,053874	859,921785	43,491	0,275009
4,069882	872,176069	43,895	0,280328
4,085886	883,029639	44,298	0,285038
4,101881	892,784013	44,714	0,289271
4,117862	904,978669	45,131	0,294564
4,133861	916,318269	45,542	0,299485
4,149841	927,903136	45,942	0,304513
4,165850	937,719389	46,347	0,308773
4,181818	948,450326	46,749	0,313431
4,197885	960,338962	47,161	0,318590
4,213854	971,801195	47,578	0,323565
4,229845	983,507569	47,985	0,328646
4,241825	991,738596	48,391	0,332218
4,241839	992,043491	48,792	0,332350
4,241821	992,104245	49,193	0,332376
4,241803	991,738596	49,593	0,332218
4,241822	991,860104	49,993	0,332271
4,241876	991,494456	50,394	0,332112
4,241849	991,128807	50,805	0,331953
4,241818	991,921983	51,221	0,332297
4,241784	991,617088	51,642	0,332165
4,241823	991,738596	52,047	0,332218
4,241785	991,617088	52,447	0,332165
4,241824	991,433702	52,853	0,332085
4,241825	991,372948	53,261	0,332059
4,229826	982,410624	53,676	0,328169
4,213854	970,276723	54,079	0,322903
4,197819	958,022438	54,487	0,317585
4,181878	946,011170	54,893	0,312372
4,165839	934,548936	55,294	0,307397
4,149897	922,354281	55,695	0,302105
4,133874	910,039243	56,098	0,296760
4,117769	897,662325	56,501	0,291389
4,101852	886,077459	56,903	0,286361
4,085873	873,090753	57,306	0,280725
4,069893	861,446258	57,718	0,275671
4,053875	848,397672	58,129	0,270008
4,037873	836,630544	58,550	0,264901
4,021846	824,437014	58,964	0,259609
4,005856	811,937464	59,393	0,254184
3,989868	799,622426	59,796	0,248839
3,973885	786,878735	60,198	0,243309
3,957871	775,050853	60,599	0,238175
3,941879	762,918077	61,002	0,232910
3,925924	750,297019	61,403	0,227432
3,909916	736,883911	61,807	0,221611
3,893959	725,116782	62,227	0,216504
3,877894	712,984006	62,631	0,211238
3,861920	700,911983	63,034	0,205999
3,845889	687,925277	63,437	0,200363
3,829930	676,706059	63,854	0,195494
3,813901	664,024248	64,259	0,189990
3,797870	651,891471	64,661	0,184724
3,781856	638,904765	65,080	0,179088
3,765936	627,076883	65,498	0,173955
3,749869	614,516579	65,902	0,168503
3,733922	602,262295	66,302	0,163185
3,717903	590,677428	66,712	0,158157
3,701827	578,910300	67,113	0,153050
3,685916	566,411875	67,529	0,147626
3,669914	553,790818	67,936	0,142148
3,653955	542,571600	68,360	0,137279
3,637900	529,829034	68,761	0,131749
3,621887	517,818890	69,162	0,126537
3,605928	505,929129	69,578	0,121376
3,589902	494,222755	69,987	0,116296
3,573929	482,150733	70,390	0,111057
3,557889	470,749253	70,803	0,106108
3,541901	458,494969	71,215	0,100790
3,525919	447,093489	71,615	0,095842
3,509963	434,349798	72,034	0,090311
3,493923	423,680741	72,448	0,085681
3,477901	411,243070	72,861	0,080283
3,461929	399,475941	73,263	0,075176
3,445954	387,830321	73,663	0,070122
3,429933	376,184701	74,065	0,065067
3,413974	365,210748	74,467	0,060305
3,397929	353,138726	74,868	0,055065
3,381979	342,042141	75,299	0,050250
3,365962	331,189696	75,709	0,045540
3,349963	319,604830	76,110	0,040512
3,334020	308,629752	76,513	0,035749
3,317972	296,801870	76,919	0,030615
3,301973	285,827918	77,323	0,025853
3,285970	274,792087	77,741	0,021063
3,269988	262,963080	78,151	0,015929
3,254010	251,318584	78,567	0,010875
3,237971	239,977859	79,016	0,005954
3,221953	228,820520	79,422	0,001111
3,206013	217,784688	79,841	-0,003678
3,189952	206,566595	80,255	-0,008547
3,173992	195,408131	80,662	-0,013390
3,157978	183,397987	81,069	-0,018602
3,141977	172,057262	81,472	-0,023524
3,125977	160,655782	81,901	-0,028472
3,109975	149,559197	82,310	-0,033288
3,094001	139,742944	82,721	-0,037548
3,077981	127,793554	83,123	-0,042734
3,061974	118,038054	83,553	-0,046968
3,045964	109,136485	83,964	-0,050832
3,030010	101,820141	84,380	-0,054007
3,014043	95,479236	84,797	-0,056759
2,998004	89,443224	85,219	-0,059378
2,982003	83,955123	85,622	-0,061760
2,965984	80,479776	86,037	-0,063269
2,950050	74,810538	86,440	-0,065729
2,934042	72,249874	86,865	-0,066840
2,918086	68,102859	87,266	-0,068640
2,902028	64,810898	87,669	-0,070069
2,886023	60,177851	88,072	-0,072080
2,870053	55,970082	88,478	-0,073906
2,853990	51,519297	88,896	-0,075837
2,838037	46,581356	89,320	-0,077980
2,822006	41,947185	89,727	-0,079992
2,806066	39,691415	90,156	-0,080971
2,790005	34,570087	90,562	-0,083193
2,774021	30,545705	90,968	-0,084940
2,758025	25,850779	91,369	-0,086978
2,741999	22,863713	91,777	-0,088274
2,726055	17,986526	92,229	-0,090391
2,710077	13,840636	92,631	-0,092190
2,694052	9,511359	93,034	-0,094069
2,678038	5,182082	93,451	-0,095948
2,662046	1,096945	93,879	-0,097721
2,646002	-2,621418	94,301	-0,099334
2,630031	-5,121328	94,724	-0,100419
2,614077	-9,329097	95,132	-0,102246
2,598034	-13,840636	95,535	-0,104204
2,582059	-14,511179	95,957	-0,104495
2,566056	-15,486616	96,371	-0,104918
2,550007	-14,450425	96,783	-0,104468
2,534042	-13,596495	97,194	-0,104098
2,518028	-12,681812	97,616	-0,103701
2,502004	-10,791691	98,038	-0,102880
2,486063	-10,304534	98,459	-0,102669
2,470061	-6,585046	98,884	-0,101055
2,454018	-5,121328	99,292	-0,100419
2,438021	-4,329277	99,714	-0,100076
2,422016	-4,390031	100,131	-0,100102
2,406032	-2,011629	100,540	-0,099070
2,390032	-1,524473	100,942	-0,098858
2,374029	-1,158824	101,372	-0,098700
2,358060	-0,670543	101,793	-0,098488
2,342020	-0,121508	102,213	-0,098250