File: Nanoindentation Datenauswertung/data/AR-SA-450-1-450-3um-diff_LF-4x4-1
Quasi static measurement routine
Tip parameters (shape,radius, material...)
05.09.2022

Piezo position[nm]	MEMS displ.[nm]	Time[ms]	Cap [pf]	Temp [°C]	Rh [%]
eoh

X-Pos [um]	Y-Pos [um]
0,000265	0,001402

POC
1,947867
0,959833	-0,047779	1,958	-0,079876	94,250000	0,000000
0,972854	-0,008157	3,915	-0,079859	94,180000	0,000000
0,985846	0,149165	5,866	-0,079793	94,210000	0,000000
0,998878	-0,142173	7,819	-0,079916	94,210000	0,000000
1,011870	-0,135180	9,773	-0,079913	94,260000	0,000000
1,024850	-0,079244	11,726	-0,079889	94,260000	0,000000
1,037811	-0,110708	13,680	-0,079902	94,210000	0,000000
1,050833	-0,087401	15,634	-0,079893	94,210000	0,000000
1,063911	-0,079244	17,587	-0,079889	94,180000	0,000000
1,076816	-0,102551	19,538	-0,079899	94,180000	0,000000
1,089859	0,054771	21,490	-0,079833	94,230000	0,000000
1,102806	-0,047779	23,446	-0,079876	94,230000	0,000000
1,115793	-0,062929	25,399	-0,079882	94,240000	0,000000
1,128900	-0,016315	27,352	-0,079863	94,160000	0,000000
1,141824	0,000000	29,304	-0,079856	94,160000	0,000000
1,154828	0,046614	31,257	-0,079836	94,210000	0,000000
1,167871	-0,087401	33,211	-0,079893	94,120000	0,000000
1,180815	-0,110708	35,162	-0,079902	94,160000	0,000000
1,193741	-0,031464	37,117	-0,079869	94,160000	0,000000
1,206782	0,015150	39,069	-0,079850	94,240000	0,000000
1,219889	-0,158487	41,024	-0,079922	94,230000	0,000000
1,232751	-0,205101	42,974	-0,079942	94,120000	0,000000
1,245793	-0,135180	44,928	-0,079913	94,240000	0,000000
1,258806	0,000000	46,882	-0,079856	94,130000	0,000000
1,271803	0,054771	48,836	-0,079833	94,230000	0,000000
1,284808	-0,110708	50,789	-0,079902	94,130000	0,000000
1,297793	0,094393	52,742	-0,079816	94,170000	0,000000
1,310797	-0,071086	54,695	-0,079886	94,260000	0,000000
1,323818	-0,102551	56,646	-0,079899	94,260000	0,000000
1,336769	-0,110708	58,598	-0,079902	94,230000	0,000000
1,349802	-0,205101	60,551	-0,079942	94,200000	0,000000
1,362852	-0,016315	62,506	-0,079863	94,180000	0,000000
1,375784	0,023307	64,460	-0,079846	94,250000	0,000000
1,388834	0,008157	66,416	-0,079853	94,260000	0,000000
1,401886	-0,158487	68,371	-0,079922	94,260000	0,000000
1,414844	-0,189952	70,326	-0,079936	94,200000	0,000000
1,427763	-0,031464	72,278	-0,079869	94,150000	0,000000
1,440793	-0,039622	74,231	-0,079873	94,180000	0,000000
1,453770	-0,213259	76,184	-0,079945	94,210000	0,000000
1,466776	-0,071086	78,136	-0,079886	94,230000	0,000000
1,479802	0,244723	80,089	-0,079753	94,230000	0,000000
1,492816	-0,150330	82,040	-0,079919	94,240000	0,000000
1,505827	-0,031464	83,992	-0,079869	94,240000	0,000000
1,518830	-0,024472	85,945	-0,079866	94,240000	0,000000
1,531810	-0,008157	87,901	-0,079859	94,240000	0,000000
1,544790	-0,095559	89,852	-0,079896	94,240000	0,000000
1,557763	-0,039622	91,806	-0,079873	94,240000	0,000000
1,570832	-0,158487	93,759	-0,079922	94,240000	0,000000
1,583838	-0,229574	95,710	-0,079952	94,170000	0,000000
1,596741	-0,166645	97,661	-0,079926	94,210000	0,000000
1,609779	-0,244723	99,614	-0,079958	94,230000	0,000000
1,622815	-0,071086	101,570	-0,079886	94,230000	0,000000
1,635791	-0,071086	103,527	-0,079886	94,240000	0,000000
1,648822	-0,135180	105,478	-0,079913	94,240000	0,000000
1,661783	-0,386896	107,430	-0,080018	94,180000	0,000000
1,674781	-0,229574	109,383	-0,079952	94,180000	0,000000
1,687766	-0,315810	111,336	-0,079988	94,210000	0,000000
1,700783	-0,371746	113,288	-0,080012	94,210000	0,000000
1,713829	-0,150330	115,244	-0,079919	94,240000	0,000000
1,726836	-0,853036	117,198	-0,080213	94,150000	0,000000
1,739805	-0,213259	119,152	-0,079945	94,290000	0,000000
1,752804	-0,315810	121,107	-0,079988	94,160000	0,000000
1,765780	-0,466140	123,059	-0,080051	94,260000	0,000000
1,778841	-0,244723	125,009	-0,079958	94,160000	0,000000
1,791817	-0,363589	126,961	-0,080008	94,160000	0,000000
1,804768	-0,474297	128,919	-0,080055	94,240000	0,000000
1,817830	-0,608312	130,871	-0,080111	94,210000	0,000000
1,830750	-0,505761	132,825	-0,080068	94,210000	0,000000
1,843803	-0,836721	134,777	-0,080207	94,180000	0,000000
1,856770	-0,844878	136,731	-0,080210	94,180000	0,000000
1,869744	-0,963744	138,684	-0,080260	94,180000	0,000000
1,882802	-55,795747	140,640	-0,103234	94,160000	0,000000
1,895769	-42,612153	142,591	-0,097710	94,160000	0,000000
1,908761	-30,716270	144,544	-0,092726	94,120000	0,000000
1,921762	-17,588613	146,494	-0,087226	94,210000	0,000000
1,934776	-4,681207	148,450	-0,081817	94,230000	0,000000
1,947774	8,335742	150,405	-0,076363	94,180000	0,000000
1,960744	22,331584	152,359	-0,070499	94,180000	0,000000
1,973737	35,057195	154,314	-0,065167	94,240000	0,000000
1,986801	47,222274	156,269	-0,060070	94,210000	0,000000
1,999781	60,397710	158,222	-0,054549	94,210000	0,000000
2,012745	74,038121	160,176	-0,048834	94,150000	0,000000
2,025789	86,061027	162,127	-0,043796	94,210000	0,000000
2,038773	99,859925	164,080	-0,038015	94,260000	0,000000
2,051760	112,317506	166,037	-0,032795	94,180000	0,000000
2,064770	124,710993	167,989	-0,027602	94,180000	0,000000
2,072732	133,701661	169,944	-0,023835	94,210000	0,000000
2,061768	122,295225	171,899	-0,028614	94,210000	0,000000
2,048730	109,151253	173,850	-0,034122	94,210000	0,000000
2,035817	96,883624	175,801	-0,039262	94,180000	0,000000
2,022811	83,693038	177,754	-0,044789	94,180000	0,000000
2,009780	70,335807	179,710	-0,050385	94,170000	0,000000
1,996793	57,571739	181,667	-0,055733	94,100000	0,000000
1,983783	44,624711	183,620	-0,061158	94,260000	0,000000
1,970768	31,607762	185,574	-0,066612	94,200000	0,000000
1,957773	17,737778	187,527	-0,072424	94,200000	0,000000
1,944754	5,651943	189,484	-0,077488	94,250000	0,000000
1,931781	-7,546800	191,438	-0,083018	94,210000	0,000000
1,918798	-20,698930	193,390	-0,088529	94,210000	0,000000
1,905793	-34,150554	195,346	-0,094165	94,130000	0,000000
1,892733	-47,569548	197,299	-0,099788	94,130000	0,000000
1,879769	-60,761299	199,252	-0,105315	94,160000	0,000000
1,866759	-72,933370	201,204	-0,110415	94,260000	0,000000
1,853803	-85,920020	203,156	-0,115856	94,290000	0,000000
1,840837	-99,757374	205,109	-0,121654	94,290000	0,000000
1,827791	-111,701037	207,064	-0,126659	94,240000	0,000000
1,814757	-124,719151	209,018	-0,132113	94,180000	0,000000
1,801792	-138,802394	210,971	-0,138014	94,180000	0,000000
1,788836	-150,888229	212,925	-0,143078	94,210000	0,000000
1,775855	-163,905178	214,880	-0,148532	94,210000	0,000000
1,762833	-176,986221	216,834	-0,154013	94,230000	0,000000
1,749805	-189,995012	218,788	-0,159464	94,210000	0,000000
1,736807	-203,881312	220,741	-0,165282	94,210000	0,000000
1,723770	-215,982296	222,694	-0,170353	94,210000	0,000000
1,710801	-228,850080	224,648	-0,175744	94,160000	0,000000
1,697781	-242,467184	226,600	-0,181450	94,160000	0,000000
1,684853	-255,973579	228,553	-0,187109	94,180000	0,000000
1,671789	-268,146815	230,504	-0,192209	94,160000	0,000000
1,658767	-282,016800	232,455	-0,198021	94,320000	0,000000
1,645777	-294,125942	234,408	-0,203095	94,150000	0,000000
1,632810	-307,980776	236,358	-0,208900	94,180000	0,000000
1,619829	-319,821888	238,311	-0,213861	94,180000	0,000000
1,606827	-333,052096	240,264	-0,219405	94,260000	0,000000
1,593862	-345,856951	242,219	-0,224770	94,240000	0,000000
1,580875	-358,991600	244,174	-0,230273	94,130000	0,000000
1,567869	-372,095950	246,126	-0,235764	94,130000	0,000000
1,554831	-384,829719	248,079	-0,241100	94,210000	0,000000
1,541820	-397,886290	250,034	-0,246570	94,210000	0,000000
1,528800	-410,611901	251,987	-0,251902	94,210000	0,000000
1,515805	-423,565921	253,940	-0,257330	94,240000	0,000000
1,502796	-436,346304	255,892	-0,262685	94,240000	0,000000
1,489866	-449,497268	257,846	-0,268195	94,210000	0,000000
1,476765	-462,483918	259,803	-0,273637	94,180000	0,000000
1,463818	-476,116171	261,756	-0,279349	94,180000	0,000000
1,450776	-488,257943	263,712	-0,284436	94,180000	0,000000
1,437855	-501,157192	265,666	-0,289841	94,200000	0,000000
1,424779	-513,952724	267,621	-0,295202	94,170000	0,000000
1,411788	-527,088539	269,574	-0,300706	94,240000	0,000000
1,398793	-540,318746	271,531	-0,306250	94,170000	0,000000
1,385843	-552,705241	273,484	-0,311439	94,280000	0,000000
1,372855	-565,414538	275,437	-0,316765	94,210000	0,000000
1,359842	-578,849847	277,391	-0,322394	94,210000	0,000000
1,346836	-591,780560	279,346	-0,327812	94,230000	0,000000
1,333793	-604,095969	281,300	-0,332972	94,230000	0,000000
1,320831	-616,963753	283,252	-0,338364	94,250000	0,000000
1,307802	-630,785958	285,207	-0,344155	94,290000	0,000000
1,294849	-643,510404	287,159	-0,349487	94,290000	0,000000
1,281839	-656,227858	289,112	-0,354815	94,160000	0,000000
1,268810	-668,037506	291,068	-0,359764	94,260000	0,000000
1,255852	-682,231457	293,022	-0,365711	94,210000	0,000000
1,242815	-694,254363	294,978	-0,370749	94,230000	0,000000
1,229894	-707,216540	296,936	-0,376180	94,240000	0,000000
1,216815	-719,689271	298,890	-0,381406	94,230000	0,000000
1,203819	-732,477812	300,841	-0,386764	94,180000	0,000000
1,190788	-745,810570	302,794	-0,392351	94,180000	0,000000
1,177821	-758,992999	304,746	-0,397874	94,240000	0,000000
1,164801	-771,789696	306,701	-0,403236	94,160000	0,000000
1,151852	-783,986240	308,654	-0,408346	94,180000	0,000000
1,138798	-797,113897	310,610	-0,413847	94,210000	0,000000
1,125779	-809,776579	312,566	-0,419152	94,210000	0,000000
1,112854	-823,615099	314,520	-0,424951	94,240000	0,000000
1,099851	-835,692777	316,476	-0,430011	94,240000	0,000000
1,086818	-848,922984	318,427	-0,435555	94,160000	0,000000
1,073867	-861,285007	320,379	-0,440734	94,210000	0,000000
1,060804	-873,813675	322,338	-0,445984	94,210000	0,000000
1,047873	-886,152390	324,293	-0,451154	94,160000	0,000000
1,034789	-898,482949	326,251	-0,456320	94,180000	0,000000
1,021791	-911,389189	328,203	-0,461728	94,210000	0,000000
1,008847	-923,995935	330,156	-0,467010	94,180000	0,000000
0,995829	-0,719020	332,108	-0,080157	94,180000	0,000000
0,982832	-0,844878	334,062	-0,080210	94,180000	0,000000
0,969784	-0,236566	336,017	-0,079955	94,180000	0,000000
0,956838	-0,300660	337,970	-0,079982	94,210000	0,000000
0,947812	-0,261038	339,321	-0,079965	94,210000	0,000000

X-Pos [um]	Y-Pos [um]
0,000215	5,002339

POC
1,937703
0,951628	0,275022	2,261	-0,079913	94,210000	0,000000
0,966596	0,314644	4,518	-0,079896	94,170000	0,000000
0,981613	0,307652	6,773	-0,079899	94,210000	0,000000
0,996630	0,228408	9,032	-0,079932	94,180000	0,000000
1,011612	0,378738	11,285	-0,079869	94,200000	0,000000
1,026626	0,322802	13,539	-0,079893	94,240000	0,000000
1,041646	0,236566	15,794	-0,079929	94,210000	0,000000
1,056665	0,330959	18,047	-0,079889	94,240000	0,000000
1,071656	0,141007	20,304	-0,079969	94,240000	0,000000
1,086581	0,385731	22,559	-0,079866	94,250000	0,000000
1,101619	0,370581	24,817	-0,079873	94,160000	0,000000
1,116605	0,307652	27,071	-0,079899	94,240000	0,000000
1,131590	0,536061	29,325	-0,079803	94,210000	0,000000
1,146632	0,283180	31,582	-0,079909	94,210000	0,000000
1,161606	0,243558	33,833	-0,079926	94,210000	0,000000
1,176567	0,125858	36,087	-0,079975	94,180000	0,000000
1,191609	0,299495	38,343	-0,079902	94,240000	0,000000
1,206618	0,347274	40,602	-0,079882	94,240000	0,000000
1,221663	0,268030	42,857	-0,079916	94,240000	0,000000
1,236665	0,283180	45,113	-0,079909	94,210000	0,000000
1,251642	0,268030	47,369	-0,079916	94,260000	0,000000
1,266625	0,418360	49,625	-0,079853	94,260000	0,000000
1,281717	0,180629	51,878	-0,079952	94,280000	0,000000
1,296648	0,330959	54,132	-0,079889	94,170000	0,000000
1,311639	0,314644	56,388	-0,079896	94,230000	0,000000
1,326587	0,330959	58,643	-0,079889	94,230000	0,000000
1,341611	0,275022	60,896	-0,079913	94,170000	0,000000
1,356608	0,165480	63,149	-0,079958	94,240000	0,000000
1,371609	0,307652	65,403	-0,079899	94,210000	0,000000
1,386606	0,259873	67,658	-0,079919	94,160000	0,000000
1,401602	0,086236	69,910	-0,079992	94,150000	0,000000
1,416669	0,441667	72,163	-0,079843	94,180000	0,000000
1,431589	0,322802	74,417	-0,079893	94,240000	0,000000
1,446613	0,402045	76,671	-0,079859	94,180000	0,000000
1,461644	0,236566	78,924	-0,079929	94,240000	0,000000
1,476622	0,243558	81,179	-0,079926	94,240000	0,000000
1,491677	0,322802	83,433	-0,079893	94,250000	0,000000
1,506642	0,378738	85,691	-0,079869	94,200000	0,000000
1,521592	0,339117	87,946	-0,079886	94,200000	0,000000
1,536566	0,236566	90,202	-0,079929	94,160000	0,000000
1,551621	0,157322	92,457	-0,079962	94,160000	0,000000
1,566626	0,046614	94,714	-0,080008	94,180000	0,000000
1,581631	0,149165	96,968	-0,079965	94,210000	0,000000
1,596600	0,268030	99,222	-0,079916	94,230000	0,000000
1,611619	0,488281	101,477	-0,079823	94,210000	0,000000
1,626636	0,094393	103,731	-0,079988	94,160000	0,000000
1,641584	0,196944	105,986	-0,079945	94,290000	0,000000
1,656570	0,134015	108,240	-0,079972	94,250000	0,000000
1,671589	0,213259	110,494	-0,079938	94,250000	0,000000
1,686580	0,220251	112,751	-0,079936	94,150000	0,000000
1,701599	0,330959	115,007	-0,079889	94,210000	0,000000
1,716563	0,054771	117,263	-0,080005	94,210000	0,000000
1,731643	0,165480	119,518	-0,079958	94,210000	0,000000
1,746631	0,307652	121,771	-0,079899	94,210000	0,000000
1,761525	0,307652	124,024	-0,079899	94,210000	0,000000
1,776557	0,213259	126,281	-0,079938	94,260000	0,000000
1,791559	-0,008157	128,536	-0,080031	94,210000	0,000000
1,806619	0,220251	130,791	-0,079936	94,200000	0,000000
1,821610	0,378738	133,043	-0,079869	94,240000	0,000000
1,836555	-0,181794	135,298	-0,080104	94,240000	0,000000
1,851559	-0,308817	137,555	-0,080157	94,230000	0,000000
1,866554	-0,489447	139,812	-0,080233	94,180000	0,000000
1,881566	-49,006423	142,065	-0,100562	94,210000	0,000000
1,896565	-34,158711	144,317	-0,094340	94,210000	0,000000
1,911591	-18,433491	146,573	-0,087751	94,210000	0,000000
1,926544	-4,421334	148,826	-0,081880	94,240000	0,000000
1,941617	10,262064	151,078	-0,075728	94,240000	0,000000
1,956581	25,552609	153,332	-0,069321	94,250000	0,000000
1,971610	41,246364	155,587	-0,062746	94,210000	0,000000
1,986578	56,032313	157,841	-0,056550	94,210000	0,000000
2,001567	69,917447	160,096	-0,050732	94,130000	0,000000
2,016577	85,326857	162,347	-0,044276	94,170000	0,000000
2,031560	99,922854	164,598	-0,038160	94,170000	0,000000
2,046573	115,663223	166,855	-0,031565	94,130000	0,000000
2,061621	130,149677	169,108	-0,025495	94,180000	0,000000
2,076565	145,045169	171,363	-0,019254	94,200000	0,000000
2,091623	159,815968	173,618	-0,013065	94,200000	0,000000
2,106545	174,830325	175,871	-0,006774	94,180000	0,000000
2,121582	189,915769	178,127	-0,000453	94,180000	0,000000
2,136577	206,019727	180,383	0,006294	94,280000	0,000000
2,151583	220,094813	182,637	0,012192	94,210000	0,000000
2,166576	235,299122	184,891	0,018562	94,210000	0,000000
2,181533	249,761103	187,146	0,024622	94,210000	0,000000
2,185552	255,452668	189,399	0,027007	94,170000	0,000000
2,170586	240,160958	191,652	0,020600	94,210000	0,000000
2,155542	224,799327	193,905	0,014163	94,210000	0,000000
2,140617	210,077472	196,157	0,007995	94,180000	0,000000
2,125532	194,004978	198,413	0,001260	94,240000	0,000000
2,110561	179,771405	200,665	-0,004704	94,240000	0,000000
2,095531	164,188358	202,918	-0,011233	94,210000	0,000000
2,080523	149,023671	205,170	-0,017587	94,210000	0,000000
2,065612	133,662039	207,426	-0,024023	94,230000	0,000000
2,050572	119,476246	209,680	-0,029967	94,240000	0,000000
2,035564	104,848784	211,935	-0,036096	94,240000	0,000000
2,020573	88,255379	214,189	-0,043049	94,290000	0,000000
2,005558	74,069585	216,443	-0,048993	94,290000	0,000000
1,990589	59,592454	218,698	-0,055059	94,210000	0,000000
1,975571	43,133064	220,953	-0,061955	94,240000	0,000000
1,960603	28,276029	223,210	-0,068180	94,240000	0,000000
1,945552	13,372380	225,464	-0,074425	94,250000	0,000000
1,930596	-0,710863	227,716	-0,080326	94,250000	0,000000
1,915574	-17,122474	229,969	-0,087202	94,210000	0,000000
1,900626	-31,356047	232,221	-0,093166	94,210000	0,000000
1,885605	-46,669899	234,476	-0,099583	94,260000	0,000000
1,870588	-61,487312	236,733	-0,105791	94,200000	0,000000
1,855646	-77,331397	238,985	-0,112430	94,130000	0,000000
1,840612	-91,785222	241,237	-0,118486	94,250000	0,000000
1,825610	-106,381218	243,488	-0,124602	94,250000	0,000000
1,810599	-122,280075	245,741	-0,131263	94,260000	0,000000
1,795578	-136,647664	247,995	-0,137283	94,260000	0,000000
1,780607	-152,096696	250,249	-0,143756	94,210000	0,000000
1,765621	-166,937416	252,504	-0,149975	94,260000	0,000000
1,750587	-181,604499	254,754	-0,156120	94,260000	0,000000
1,735545	-196,744714	257,007	-0,162464	94,230000	0,000000
1,720574	-212,304454	259,259	-0,168983	94,230000	0,000000
1,705610	-227,239568	261,512	-0,175241	94,210000	0,000000
1,690553	-241,339126	263,767	-0,181149	94,180000	0,000000
1,675569	-256,748536	266,021	-0,187605	94,230000	0,000000
1,660572	-271,423777	268,278	-0,193754	94,230000	0,000000
1,645607	-286,825030	270,532	-0,200208	94,210000	0,000000
1,630599	-300,741628	272,787	-0,206039	94,280000	0,000000
1,615613	-317,019224	275,039	-0,212859	94,210000	0,000000
1,600621	-331,142089	277,291	-0,218776	94,280000	0,000000
1,585578	-346,520035	279,546	-0,225220	94,260000	0,000000
1,570585	-361,455148	281,800	-0,231478	94,210000	0,000000
1,555592	-376,414734	284,053	-0,237746	94,210000	0,000000
1,540601	-390,592370	286,306	-0,243686	94,250000	0,000000
1,525638	-406,112489	288,558	-0,250189	94,250000	0,000000
1,510595	-420,953209	290,815	-0,256407	94,250000	0,000000
1,495660	-435,912795	293,067	-0,262675	94,180000	0,000000
[...]
1,693348	-0,315810	132,848	-0,079492	94,730000	0,000000
1,727371	-0,591997	137,958	-0,079608	94,860000	0,000000
1,761393	-39,738402	143,072	-0,096010	94,750000	0,000000
1,795420	-6,567907	148,187	-0,082112	94,780000	0,000000
1,829366	27,786583	153,297	-0,067717	94,750000	0,000000
1,863415	61,676098	158,411	-0,053518	94,720000	0,000000
1,897397	95,724101	163,523	-0,039251	94,810000	0,000000
1,931424	130,094906	168,628	-0,024850	94,780000	0,000000
1,965356	163,060300	173,736	-0,011038	94,750000	0,000000
1,999385	196,696935	178,852	0,003056	94,770000	0,000000
2,033390	232,000019	183,957	0,017848	94,890000	0,000000
2,067372	264,491115	189,063	0,031462	94,780000	0,000000
2,101422	299,453917	194,174	0,046111	94,670000	0,000000
2,135395	331,804007	199,288	0,059666	94,820000	0,000000
2,169379	366,348449	204,397	0,074140	94,780000	0,000000
2,203353	400,388294	209,504	0,088403	94,810000	0,000000
2,237427	434,451447	214,621	0,102675	94,750000	0,000000
2,271352	469,366470	219,730	0,117305	94,780000	0,000000
2,305376	503,042726	224,842	0,131415	94,810000	0,000000
2,339360	536,285473	229,948	0,145344	94,750000	0,000000
2,373371	570,884686	235,061	0,159841	94,830000	0,000000
2,407335	604,008568	240,167	0,173720	94,780000	0,000000
2,441365	637,810682	245,280	0,187883	94,810000	0,000000
2,475346	672,536918	250,391	0,202433	94,770000	0,000000
2,509379	706,418276	255,502	0,216629	94,780000	0,000000
2,543342	739,550315	260,618	0,230512	94,780000	0,000000
2,577341	773,266194	265,729	0,244639	94,860000	0,000000
2,611346	808,308239	270,841	0,259321	94,750000	0,000000
2,645343	840,886737	275,946	0,272972	94,800000	0,000000
2,679386	875,312314	281,058	0,287396	94,750000	0,000000
2,713379	908,570210	286,166	0,301331	94,820000	0,000000
2,747319	942,735913	291,273	0,315646	94,780000	0,000000
2,781356	976,207069	296,385	0,329671	94,830000	0,000000
2,815366	1011,351665	301,496	0,344396	94,780000	0,000000
2,849316	1044,971985	306,608	0,358483	94,820000	0,000000
2,883331	1078,246196	311,713	0,372425	94,810000	0,000000
2,917327	1111,724344	316,820	0,386453	94,750000	0,000000
2,951273	1146,924877	321,931	0,401202	94,820000	0,000000
2,985329	1179,534839	327,038	0,414865	94,820000	0,000000
3,019291	1213,472134	332,146	0,429085	94,810000	0,000000
3,053350	1247,393114	337,259	0,443298	94,800000	0,000000
3,087315	1280,768711	342,368	0,457282	94,780000	0,000000
3,121311	1314,532369	347,481	0,471429	94,850000	0,000000
3,155320	1348,626986	352,590	0,485715	94,800000	0,000000
3,189290	1383,171428	357,701	0,500189	94,730000	0,000000
3,223259	1417,069101	362,813	0,514392	94,780000	0,000000
3,257265	1450,839751	367,923	0,528542	94,890000	0,000000
3,291257	1484,286433	373,035	0,542556	94,750000	0,000000
3,325260	1518,934591	378,151	0,557074	94,810000	0,000000
3,359337	1553,036200	383,263	0,571362	94,810000	0,000000
3,393282	1586,712457	388,374	0,585473	94,750000	0,000000
3,427236	1620,681216	393,487	0,599706	94,880000	0,000000
3,461266	1654,364465	398,592	0,613819	94,750000	0,000000
3,495287	1688,356532	403,703	0,628062	94,830000	0,000000
3,529231	1721,440791	408,810	0,641924	94,800000	0,000000
3,563250	1755,290685	413,925	0,656107	94,830000	0,000000
3,597245	1788,872548	419,033	0,670178	94,770000	0,000000
3,631205	1823,109338	424,142	0,684523	94,780000	0,000000
3,665221	1857,124711	429,251	0,698775	94,830000	0,000000
3,699189	1890,721724	434,358	0,712853	94,850000	0,000000
3,733220	1924,911900	439,466	0,727178	94,770000	0,000000
3,767173	1959,218610	444,571	0,741553	94,780000	0,000000
3,801214	1992,831938	449,676	0,755637	94,780000	0,000000
3,792258	1984,527661	454,783	0,752157	94,860000	0,000000
3,758230	1949,761803	459,890	0,737590	94,820000	0,000000
3,724257	1915,256983	465,000	0,723133	94,770000	0,000000
3,690205	1881,746206	470,108	0,709092	94,830000	0,000000
3,656270	1847,406865	475,217	0,694704	94,910000	0,000000
3,622278	1813,596593	480,323	0,680537	94,810000	0,000000
3,588231	1778,918137	485,431	0,666007	94,750000	0,000000
3,554279	1744,744276	490,547	0,651688	94,830000	0,000000
3,520222	1711,329057	495,660	0,637687	94,750000	0,000000
3,486293	1677,068961	500,767	0,623332	94,810000	0,000000
3,452234	1643,154973	505,880	0,609122	94,780000	0,000000
3,418233	1608,855254	510,988	0,594750	94,820000	0,000000
3,384248	1574,823566	516,102	0,580491	94,860000	0,000000
3,350281	1540,287282	521,213	0,566021	94,820000	0,000000
3,316281	1506,777670	526,320	0,551980	94,820000	0,000000
3,282257	1472,532723	531,427	0,537631	94,810000	0,000000
3,248301	1437,892723	536,535	0,523117	94,780000	0,000000
3,214322	1404,011364	541,641	0,508921	94,810000	0,000000
3,180298	1369,214042	546,751	0,494341	94,750000	0,000000
3,146349	1335,175362	551,857	0,480079	94,770000	0,000000
3,112255	1301,365090	556,965	0,465912	94,800000	0,000000
3,078291	1267,088678	562,074	0,451550	94,780000	0,000000
3,044304	1233,862246	567,185	0,437628	94,700000	0,000000
3,010319	1198,883129	572,293	0,422972	94,770000	0,000000
2,976372	1164,915536	577,403	0,408740	94,810000	0,000000
2,942303	1131,507309	582,511	0,394742	94,860000	0,000000
2,908377	1096,772915	587,619	0,380188	94,820000	0,000000
2,874314	1063,863458	592,723	0,366399	94,820000	0,000000
2,840343	1028,608154	597,831	0,351627	94,810000	0,000000
2,806298	995,666067	602,940	0,337824	94,780000	0,000000
2,772354	961,847638	608,052	0,323654	94,860000	0,000000
2,738282	926,987386	613,159	0,309048	94,830000	0,000000
2,704360	892,987163	618,263	0,294802	94,830000	0,000000
2,670363	859,492700	623,371	0,280768	94,750000	0,000000
2,636341	825,485484	628,482	0,266519	94,800000	0,000000
2,602383	791,153136	633,594	0,252133	94,820000	0,000000
2,568313	756,332507	638,706	0,237543	94,780000	0,000000
2,534352	723,628151	643,814	0,223840	94,860000	0,000000
2,500402	689,161788	648,919	0,209399	94,820000	0,000000
2,466361	655,052021	654,025	0,195107	94,830000	0,000000
2,432422	620,861846	659,134	0,180781	94,780000	0,000000
2,398385	587,020109	664,241	0,166602	94,730000	0,000000
2,364348	553,865929	669,353	0,152710	94,830000	0,000000
2,330369	519,951941	674,465	0,138500	94,770000	0,000000
2,296367	485,944725	679,578	0,124251	94,810000	0,000000
2,262367	452,433948	684,683	0,110210	94,810000	0,000000
2,228367	418,339331	689,790	0,095924	94,850000	0,000000
2,194419	384,608303	694,898	0,081791	94,800000	0,000000
2,160390	350,726945	700,006	0,067595	94,810000	0,000000
2,126390	315,881843	705,114	0,052995	94,810000	0,000000
2,092413	282,292987	710,226	0,038921	94,770000	0,000000
2,058428	249,287972	715,336	0,025092	94,810000	0,000000
2,024361	214,892695	720,441	0,010680	94,780000	0,000000
1,990411	180,916943	725,548	-0,003556	94,810000	0,000000
1,956380	147,587961	730,651	-0,017521	94,780000	0,000000
1,922352	113,366320	735,761	-0,031859	94,800000	0,000000
1,888350	79,540899	740,872	-0,046032	94,830000	0,000000
1,854402	45,879792	745,978	-0,060136	94,810000	0,000000
1,820404	12,677832	751,087	-0,074048	94,810000	0,000000
1,786354	-20,832945	756,192	-0,088089	94,810000	0,000000
1,752406	-55,511402	761,301	-0,102619	94,810000	0,000000
1,718418	-89,756349	766,412	-0,116968	94,830000	0,000000
1,684362	-123,321897	771,523	-0,131032	94,780000	0,000000
1,650393	-155,845624	776,632	-0,144659	94,810000	0,000000
1,616405	-190,373751	781,743	-0,159126	94,830000	0,000000
1,582417	-223,742355	786,853	-0,173108	94,800000	0,000000
1,548386	-257,931366	791,965	-0,187433	94,800000	0,000000
1,514444	-291,111184	797,075	-0,201335	94,830000	0,000000
1,480437	-325,078778	802,183	-0,215568	94,780000	0,000000
1,446437	-358,399603	807,291	-0,229529	94,730000	0,000000
1,412374	-392,067702	812,397	-0,243636	94,770000	0,000000
1,378455	-426,651766	817,510	-0,258127	94,860000	0,000000
1,344442	-459,271051	822,614	-0,271794	94,860000	0,000000
1,310424	-491,912478	827,721	-0,285471	94,830000	0,000000
1,276435	-527,814551	832,834	-0,300514	94,820000	0,000000
1,242386	-560,022468	837,944	-0,314009	94,820000	0,000000
1,208407	-594,702090	843,051	-0,328540	94,860000	0,000000
1,174435	-627,659327	848,156	-0,342349	94,820000	0,000000
1,140400	-661,651393	853,263	-0,356592	94,830000	0,000000
1,106451	-694,340599	858,373	-0,370289	94,820000	0,000000
1,072405	-727,100891	863,484	-0,384015	94,810000	0,000000
1,038392	-760,958942	868,591	-0,398202	94,820000	0,000000
1,004475	-794,185374	873,703	-0,412124	94,810000	0,000000
0,970403	-827,759080	878,812	-0,426191	94,850000	0,000000
0,936407	-860,755939	883,926	-0,440017	94,860000	0,000000
0,902431	-895,648820	889,036	-0,454637	94,820000	0,000000
0,868433	-927,746028	894,150	-0,468085	94,860000	0,000000
0,834404	-0,062929	899,263	-0,079386	94,830000	0,000000
0,810442	-0,236566	902,869	-0,079459	94,830000	0,000000