File: Nanoindentation Datenauswertung/data/AR-SA-300-1-300-2um-diff_LF-4x4-3
Quasi static measurement routine
Tip parameters (shape,radius, material...)
02.09.2022

Piezo position[nm]	MEMS displ.[nm]	Time[ms]	Cap [pf]	Temp [°C]	Rh [%]
eoh

X-Pos [um]	Y-Pos [um]
0,000305	0,000943

POC
1,916036
1,422075	-0,049073	1,069	-0,134200	22,510000	46,345000
1,429120	-0,115323	2,123	-0,134227	22,510000	46,385000
1,436113	-0,066249	3,174	-0,134207	22,510000	46,385000
1,443133	0,092013	4,226	-0,134144	22,500000	46,330000
1,450106	0,116550	5,278	-0,134134	22,500000	46,330000
1,457069	0,033125	6,328	-0,134167	22,500000	46,370000
1,464114	0,208562	7,379	-0,134098	22,500000	46,370000
1,471073	-0,074837	8,430	-0,134210	22,500000	46,370000
1,478076	0,116550	9,484	-0,134134	22,500000	46,370000
1,485068	0,349649	10,538	-0,134042	22,510000	46,345000
1,492037	0,008588	11,589	-0,134177	22,500000	46,355000
1,499063	0,000000	12,644	-0,134181	22,500000	46,355000
1,506032	-0,157035	13,696	-0,134243	22,500000	46,355000
1,513069	0,092013	14,749	-0,134144	22,500000	46,355000
1,520050	0,041712	15,799	-0,134164	22,500000	46,355000
1,527025	-0,190160	16,850	-0,134256	22,500000	46,355000
1,534108	-0,231872	17,901	-0,134273	22,520000	46,385000
1,541029	-0,315297	18,953	-0,134306	22,520000	46,385000
1,548065	0,041712	20,007	-0,134164	22,510000	46,345000
1,555060	0,100601	21,059	-0,134141	22,510000	46,345000
1,562067	0,092013	22,112	-0,134144	22,510000	46,345000
1,569020	0,116550	23,164	-0,134134	22,510000	46,345000
1,576042	-0,224511	24,216	-0,134270	22,510000	46,400000
1,583040	0,008588	25,266	-0,134177	22,510000	46,400000
1,590021	-0,015949	26,317	-0,134187	22,510000	46,335000
1,597056	-0,231872	27,368	-0,134273	22,510000	46,335000
1,604031	-0,141086	28,418	-0,134237	22,510000	46,345000
1,611043	-0,174211	29,469	-0,134250	22,510000	46,345000
1,618065	0,067476	30,520	-0,134154	22,510000	46,345000
1,624912	0,274812	31,570	-0,134071	22,510000	46,345000
1,632053	0,241687	32,621	-0,134084	22,510000	46,360000
1,639083	0,092013	33,674	-0,134144	22,510000	46,360000
1,646027	-0,083425	34,729	-0,134214	22,510000	46,360000
1,653049	-0,066249	35,783	-0,134207	22,500000	46,380000
1,660059	-0,074837	36,834	-0,134210	22,500000	46,380000
1,667051	-0,182799	37,886	-0,134253	22,510000	46,360000
1,673991	-0,107962	38,939	-0,134224	22,510000	46,360000
1,681024	-0,107962	39,990	-0,134224	22,510000	46,360000
1,688058	0,215923	41,044	-0,134095	22,510000	46,360000
1,695032	0,257636	42,095	-0,134078	22,510000	46,360000
1,702045	0,083425	43,150	-0,134147	22,510000	46,360000
1,709007	-0,083425	44,203	-0,134214	22,510000	46,375000
1,716066	-0,024537	45,257	-0,134190	22,510000	46,375000
1,723095	-0,024537	46,308	-0,134190	22,510000	46,375000
1,730051	-0,057661	47,362	-0,134204	22,510000	46,375000
1,737055	-0,099374	48,413	-0,134220	22,520000	46,345000
1,744046	0,092013	49,466	-0,134144	22,520000	46,345000
1,751033	-0,423259	50,519	-0,134349	22,500000	46,330000
1,758035	0,074837	51,571	-0,134151	22,500000	46,330000
1,765028	-0,224511	52,623	-0,134270	22,500000	46,330000
1,772016	-0,049073	53,675	-0,134200	22,500000	46,330000
1,779000	0,067476	54,728	-0,134154	22,500000	46,330000
1,786071	-0,115323	55,780	-0,134227	22,500000	46,330000
1,793068	0,141086	56,832	-0,134125	22,500000	46,330000
1,800149	-0,024537	57,885	-0,134190	22,500000	46,355000
1,807107	0,050300	58,937	-0,134161	22,500000	46,355000
1,814095	-0,249048	59,989	-0,134280	22,510000	46,345000
1,821073	-0,107962	61,039	-0,134224	22,510000	46,345000
1,828009	-0,033125	62,091	-0,134194	22,510000	46,345000
1,834991	0,008588	63,142	-0,134177	22,510000	46,345000
1,842012	0,116550	64,192	-0,134134	22,510000	46,375000
1,849023	-0,074837	65,242	-0,134210	22,510000	46,375000
1,856049	0,008588	66,294	-0,134177	22,510000	46,375000
1,863018	0,017176	67,345	-0,134174	22,510000	46,375000
1,869961	-0,123911	68,397	-0,134230	22,510000	46,345000
1,877059	-0,198748	69,448	-0,134260	22,510000	46,345000
1,884037	-24,823826	70,500	-0,144061	22,510000	46,345000
1,891019	-18,490892	71,555	-0,141540	22,510000	46,345000
1,898044	-12,274507	72,605	-0,139066	22,500000	46,340000
1,904971	-5,309752	73,657	-0,136294	22,510000	46,345000
1,912005	1,021955	74,709	-0,133774	22,510000	46,345000
1,918996	9,092091	75,761	-0,130562	22,510000	46,360000
1,926017	15,557524	76,812	-0,127989	22,510000	46,360000
1,932991	21,899046	77,862	-0,125465	22,510000	46,360000
1,940025	29,868581	78,914	-0,122293	22,510000	46,360000
1,946999	36,683662	79,968	-0,119581	22,510000	46,375000
1,953984	43,688904	81,019	-0,116792	22,510000	46,375000
1,961034	49,682004	82,071	-0,114407	22,500000	46,315000
1,968061	57,552165	83,121	-0,111275	22,500000	46,315000
1,975044	63,892460	84,174	-0,108751	22,520000	46,335000
1,982062	71,155337	85,227	-0,105861	22,520000	46,335000
1,989031	78,701614	86,282	-0,102857	22,500000	46,355000
1,996013	85,640605	87,333	-0,100096	22,500000	46,355000
2,003027	91,517156	88,383	-0,097757	22,510000	46,345000
2,010075	98,173975	89,437	-0,095107	22,510000	46,345000
2,010036	99,121094	90,490	-0,094730	22,510000	46,335000
2,003003	92,979546	91,545	-0,097175	22,510000	46,335000
1,996021	84,876286	92,597	-0,100400	22,510000	46,335000
1,989059	78,734738	93,649	-0,102844	22,510000	46,345000
1,982058	71,222813	94,702	-0,105834	22,510000	46,345000
1,975038	63,701074	95,754	-0,108828	22,510000	46,320000
1,968039	57,409852	96,804	-0,111332	22,510000	46,320000
1,961020	49,282055	97,857	-0,114566	22,490000	46,340000
1,954011	43,531868	98,909	-0,116855	22,490000	46,340000
1,947027	35,844506	99,962	-0,119915	22,510000	46,375000
1,940039	27,932632	101,015	-0,123063	22,510000	46,375000
1,932983	21,998420	102,068	-0,125425	22,510000	46,375000
1,926027	14,768668	103,119	-0,128303	22,510000	46,375000
1,919043	6,682583	104,171	-0,131521	22,520000	46,320000
1,911982	0,041712	105,225	-0,134164	22,520000	46,320000
1,905090	-6,606519	106,277	-0,136810	22,510000	46,375000
1,897989	-14,335594	107,329	-0,139886	22,510000	46,375000
1,891083	-20,343416	108,380	-0,142277	22,510000	46,345000
1,884063	-27,873744	109,435	-0,145274	22,510000	46,345000
1,877008	-35,169745	110,490	-0,148178	22,510000	46,345000
1,870047	-42,475561	111,542	-0,151086	22,510000	46,345000
1,863024	-48,683358	112,595	-0,153557	22,510000	46,345000
1,856090	-55,813737	113,649	-0,156395	22,500000	46,355000
1,849022	-63,102377	114,701	-0,159295	22,500000	46,355000
1,841992	-70,424142	115,754	-0,162209	22,500000	46,355000
1,835011	-77,197511	116,805	-0,164905	22,500000	46,355000
1,828051	-83,604055	117,857	-0,167455	22,500000	46,330000
1,821078	-90,850983	118,907	-0,170339	22,500000	46,330000
1,814076	-97,399841	119,960	-0,172946	22,500000	46,370000
1,807042	-104,996418	121,012	-0,175969	22,500000	46,370000
1,800050	-112,408969	122,065	-0,178919	22,510000	46,375000
1,793082	-119,406849	123,116	-0,181705	22,510000	46,375000
1,786031	-126,445214	124,167	-0,184506	22,510000	46,345000
1,779093	-132,927823	125,218	-0,187086	22,510000	46,345000
1,772068	-141,213882	126,269	-0,190384	22,510000	46,375000
1,765010	-148,170049	127,319	-0,193152	22,510000	46,375000
1,758013	-154,717680	128,370	-0,195758	22,500000	46,355000
1,751024	-161,790397	129,421	-0,198573	22,500000	46,355000
1,744062	-169,902246	130,473	-0,201802	22,510000	46,360000
1,737004	-176,151755	131,527	-0,204289	22,510000	46,360000
1,730054	-183,033085	132,579	-0,207028	22,510000	46,335000
1,722982	-191,227132	133,633	-0,210289	22,510000	46,320000
1,716043	-197,509766	134,684	-0,212790	22,510000	46,320000
1,709000	-205,122291	135,736	-0,215819	22,510000	46,375000
1,702057	-212,036746	136,787	-0,218571	22,510000	46,375000
1,695037	-220,122831	137,841	-0,221790	22,510000	46,385000
1,688016	-226,913375	138,895	-0,224492	22,510000	46,385000
1,681028	-233,361632	139,945	-0,227059	22,510000	46,385000
1,674024	-240,450298	140,997	-0,229880	22,510000	46,385000
1,667083	-247,871437	142,048	-0,232833	22,510000	46,360000
1,660022	-254,329509	143,100	-0,235404	22,510000	46,360000
1,653033	-261,991108	144,150	-0,238453	22,510000	46,360000
1,646046	-268,614803	145,203	-0,241089	22,510000	46,360000
1,639031	-0,083425	146,255	-0,134214	22,510000	46,345000
1,632035	0,067476	147,307	-0,134154	22,510000	46,345000
1,625041	-0,157035	148,358	-0,134243	22,510000	46,335000
1,618029	0,233099	149,410	-0,134088	22,510000	46,335000
1,611069	0,017176	150,464	-0,134174	22,510000	46,360000
1,604072	0,008588	151,518	-0,134177	22,510000	46,360000
1,597054	0,191387	152,570	-0,134104	22,510000	46,375000
1,590058	-0,099374	153,624	-0,134220	22,510000	46,375000
1,583050	-0,041712	154,678	-0,134197	22,510000	46,375000
1,576071	0,274812	155,730	-0,134071	22,510000	46,360000
1,569050	-0,099374	156,780	-0,134220	22,510000	46,360000
1,562052	0,008588	157,830	-0,134177	22,500000	46,355000
1,554967	0,125137	158,881	-0,134131	22,500000	46,355000
1,548065	-0,115323	159,933	-0,134227	22,500000	46,355000
1,541032	-0,041712	160,986	-0,134197	22,500000	46,355000
1,534047	-0,007361	162,037	-0,134184	22,520000	46,400000
1,527050	-0,174211	163,090	-0,134250	22,520000	46,400000
1,520056	-0,099374	164,142	-0,134220	22,510000	46,400000
1,513040	0,283399	165,195	-0,134068	22,510000	46,400000
1,506041	-0,007361	166,249	-0,134184	22,510000	46,345000
1,499132	0,182799	167,302	-0,134108	22,510000	46,345000
1,492062	-0,132498	168,353	-0,134233	22,510000	46,345000
1,485076	0,067476	169,404	-0,134154	22,510000	46,345000
1,478017	-0,083425	170,456	-0,134214	22,500000	46,355000
1,471050	-0,165623	171,507	-0,134247	22,500000	46,355000
1,464082	0,100601	172,559	-0,134141	22,500000	46,355000
1,457090	0,041712	173,612	-0,134164	22,510000	46,375000
1,450075	-0,115323	174,663	-0,134227	22,510000	46,375000
1,443078	0,092013	175,714	-0,134144	22,510000	46,375000
1,436069	0,208562	176,765	-0,134098	22,510000	46,375000
1,429040	0,050300	177,817	-0,134161	22,510000	46,385000
1,422059	-0,299348	178,868	-0,134300	22,510000	46,385000
1,416005	0,033125	179,770	-0,134167	22,500000	46,355000

X-Pos [um]	Y-Pos [um]
0,000220	10,004502

POC
1,907963
1,414959	-0,008588	1,202	-0,134240	22,500000	46,355000
1,422978	0,449022	2,405	-0,134058	22,520000	46,335000
1,430872	0,382773	3,607	-0,134084	22,520000	46,345000
1,438921	0,374185	4,811	-0,134088	22,520000	46,345000
1,446921	0,099374	6,011	-0,134197	22,520000	46,345000
1,454973	0,282173	7,214	-0,134125	22,520000	46,345000
1,462944	0,208562	8,415	-0,134154	22,510000	46,335000
1,470970	0,066249	9,616	-0,134210	22,510000	46,335000
1,478927	-0,066249	10,817	-0,134263	22,510000	46,335000
1,486928	0,199974	12,020	-0,134157	22,500000	46,355000
1,494965	0,025764	13,220	-0,134227	22,500000	46,355000
1,503003	0,341061	14,424	-0,134101	22,510000	46,335000
1,510964	0,099374	15,628	-0,134197	22,490000	46,340000
1,518993	0,083425	16,831	-0,134204	22,490000	46,340000
1,526974	0,050300	18,032	-0,134217	22,490000	46,340000
1,534902	0,017176	19,236	-0,134230	22,490000	46,340000
1,542953	0,341061	20,438	-0,134101	22,510000	46,345000
1,550949	0,125137	21,640	-0,134187	22,510000	46,345000
1,558907	0,099374	22,844	-0,134197	22,510000	46,345000
1,566955	0,041712	24,045	-0,134220	22,500000	46,340000
1,574980	0,141086	25,247	-0,134181	22,500000	46,340000
1,582972	0,433074	26,451	-0,134064	22,510000	46,375000
1,590920	0,141086	27,653	-0,134181	22,510000	46,375000
1,598863	0,266224	28,856	-0,134131	22,510000	46,375000
1,606882	0,341061	30,059	-0,134101	22,520000	46,345000
1,614922	0,125137	31,260	-0,134187	22,520000	46,345000
1,622949	0,174211	32,460	-0,134167	22,510000	46,335000
1,630899	0,182799	33,664	-0,134164	22,510000	46,345000
1,638926	0,433074	34,865	-0,134064	22,510000	46,345000
1,646916	-0,008588	36,070	-0,134240	22,510000	46,345000
1,654949	0,274812	37,272	-0,134127	22,510000	46,345000
1,662914	0,149674	38,474	-0,134177	22,510000	46,375000
1,670919	0,116550	39,677	-0,134190	22,520000	46,375000
1,678872	0,290760	40,879	-0,134121	22,520000	46,375000
1,686948	0,074837	42,082	-0,134207	22,520000	46,375000
1,694966	0,066249	43,283	-0,134210	22,520000	46,375000
1,702970	0,166850	44,485	-0,134170	22,510000	46,360000
1,710980	0,166850	45,687	-0,134170	22,510000	46,360000
1,718915	0,208562	46,889	-0,134154	22,510000	46,360000
1,726942	0,233099	48,091	-0,134144	22,490000	46,380000
1,734951	0,191387	49,293	-0,134161	22,490000	46,380000
1,742881	0,374185	50,496	-0,134088	22,510000	46,335000
1,750871	0,158262	51,697	-0,134174	22,510000	46,360000
1,758920	0,282173	52,901	-0,134125	22,510000	46,360000
1,766890	0,125137	54,102	-0,134187	22,510000	46,360000
1,774884	0,158262	55,303	-0,134174	22,510000	46,360000
1,782906	-0,415898	56,503	-0,134402	22,510000	46,345000
1,790893	0,158262	57,705	-0,134174	22,510000	46,385000
1,798914	-0,008588	58,907	-0,134240	22,510000	46,385000
1,806908	0,017176	60,111	-0,134230	22,510000	46,385000
1,814857	0,166850	61,314	-0,134170	22,510000	46,385000
1,822926	-0,041712	62,516	-0,134253	22,520000	46,375000
1,830940	0,149674	63,718	-0,134177	22,520000	46,360000
1,838877	0,166850	64,921	-0,134170	22,520000	46,360000
1,846899	0,133725	66,123	-0,134184	22,520000	46,360000
1,854944	0,357010	67,324	-0,134095	22,520000	46,360000
1,862952	0,191387	68,528	-0,134161	22,500000	46,355000
1,870889	0,208562	69,731	-0,134154	22,510000	46,375000
1,878965	-22,148094	70,935	-0,143052	22,510000	46,375000
1,886929	-14,734316	72,138	-0,140101	22,510000	46,375000
1,894906	-7,628474	73,341	-0,137273	22,510000	46,375000
1,902927	0,856332	74,542	-0,133896	22,510000	46,360000
1,910876	7,471439	75,745	-0,131263	22,510000	46,345000
1,918902	15,524399	76,946	-0,128058	22,510000	46,345000
1,926913	24,176056	78,147	-0,124615	22,510000	46,345000
1,934887	32,544313	79,350	-0,121284	22,510000	46,345000
1,942827	40,149478	80,554	-0,118257	22,500000	46,370000
1,950858	47,354693	81,754	-0,115390	22,510000	46,345000
1,958861	55,049417	82,956	-0,112327	22,510000	46,345000
1,966862	63,718249	84,159	-0,108877	22,510000	46,345000
1,974919	71,961369	85,361	-0,105596	22,510000	46,345000
1,982892	79,573895	86,563	-0,102566	22,500000	46,330000
1,990861	88,042753	87,766	-0,099196	22,510000	46,345000
1,998863	94,866422	88,967	-0,096480	22,510000	46,345000
2,006927	102,635983	90,169	-0,093388	22,500000	46,370000
2,014867	110,589569	91,372	-0,090222	22,500000	46,370000
2,022867	118,816740	92,576	-0,086948	22,500000	46,370000
2,030802	127,069675	93,780	-0,083663	22,510000	46,345000
2,038847	135,147171	94,981	-0,080448	22,510000	46,345000
2,046813	143,823365	96,185	-0,076995	22,510000	46,360000
2,054904	150,580785	97,386	-0,074306	22,510000	46,360000
2,062896	159,347764	98,586	-0,070816	22,500000	46,340000
2,070870	166,528443	99,790	-0,067958	22,500000	46,340000
2,078914	174,572815	100,991	-0,064757	22,500000	46,340000
2,086879	182,750913	102,193	-0,061502	22,500000	46,370000
2,094883	190,803873	103,395	-0,058297	22,500000	46,370000
2,093897	191,510531	104,599	-0,058016	22,510000	46,360000
2,085877	183,083386	105,801	-0,061370	22,510000	46,360000
2,077879	174,964176	107,004	-0,064601	22,510000	46,360000
2,069882	165,746948	108,205	-0,068270	22,510000	46,345000
2,061885	158,035048	109,408	-0,071339	22,510000	46,345000
2,053893	150,505948	110,614	-0,074335	22,510000	46,345000
2,045929	142,103339	111,817	-0,077680	22,510000	46,345000
2,037878	132,695950	113,019	-0,081424	22,510000	46,345000
2,029889	125,715246	114,222	-0,084202	22,500000	46,330000
2,021838	117,088126	115,422	-0,087636	22,500000	46,330000
2,013872	109,651038	116,626	-0,090596	22,510000	46,345000
2,005882	101,563727	117,826	-0,093814	22,510000	46,345000
1,997910	93,394217	119,030	-0,097066	22,510000	46,345000
1,989903	85,849168	120,231	-0,100069	22,500000	46,355000
1,981862	76,208680	121,432	-0,103906	22,500000	46,355000
1,973916	69,302813	122,633	-0,106654	22,500000	46,355000
1,965890	60,551782	123,836	-0,110137	22,500000	46,370000
1,957925	52,796944	125,039	-0,113224	22,500000	46,370000
1,949846	43,955127	126,240	-0,116743	22,510000	46,345000
1,941917	35,902167	127,442	-0,119948	22,510000	46,345000
1,933915	28,895699	128,642	-0,122736	22,510000	46,345000
1,925975	21,009589	129,844	-0,125875	22,510000	46,360000
1,917905	11,717523	131,046	-0,129573	22,510000	46,360000
1,909967	4,022800	132,249	-0,132636	22,510000	46,360000
1,901923	-3,332090	133,452	-0,135563	22,510000	46,360000
1,893911	-11,859836	134,654	-0,138957	22,500000	46,330000
1,885917	-20,717602	135,859	-0,142482	22,510000	46,345000
1,877886	-27,483609	137,061	-0,145175	22,510000	46,345000
1,869959	-35,835918	138,262	-0,148500	22,510000	46,345000
1,861907	-43,614066	139,464	-0,151595	22,510000	46,345000
1,853884	-51,900126	140,666	-0,154893	22,510000	46,335000
1,845843	-60,434006	141,867	-0,158290	22,500000	46,340000
1,837951	-68,163081	143,069	-0,161366	22,500000	46,340000
1,829898	-75,792782	144,271	-0,164402	22,520000	46,335000
1,821922	-83,804030	145,474	-0,167591	22,520000	46,335000
1,813899	-91,698728	146,677	-0,170733	22,510000	46,335000
1,805897	-100,226474	147,880	-0,174127	22,510000	46,345000
1,797868	-107,497939	149,083	-0,177021	22,510000	46,345000
1,789894	-115,866196	150,284	-0,180352	22,520000	46,360000
1,781878	-123,619808	151,488	-0,183438	22,520000	46,360000
1,773935	-132,246928	152,688	-0,186871	22,520000	46,360000
1,765920	-141,421217	153,890	-0,190522	22,500000	46,340000
1,757901	-149,515890	155,091	-0,193744	22,500000	46,340000
1,749964	-156,306435	156,294	-0,196447	22,510000	46,345000
1,741918	-165,780072	157,496	-0,200217	22,510000	46,345000
[...]
1,867719	103,725414	89,878	-0,092987	22,510000	46,335000
1,890727	127,036550	93,335	-0,083709	22,500000	46,300000
1,913732	149,458229	96,793	-0,074786	22,510000	46,305000
1,936756	172,304393	100,246	-0,065693	22,510000	46,295000
1,959727	196,014251	103,707	-0,056256	22,500000	46,300000
1,982697	218,428569	107,164	-0,047335	22,480000	46,275000
2,005760	240,825711	110,618	-0,038421	22,500000	46,290000
2,028764	264,411658	114,074	-0,029034	22,510000	46,280000
2,051773	286,533988	117,528	-0,020229	22,510000	46,280000
2,074743	308,781456	120,984	-0,011375	22,510000	46,295000
2,097751	331,817780	124,443	-0,002207	22,500000	46,300000
2,120766	355,279817	127,898	0,007131	22,500000	46,300000
2,143742	378,058505	131,355	0,016197	22,510000	46,295000
2,166718	400,754996	134,814	0,025230	22,500000	46,290000
2,189735	424,365480	138,274	0,034627	22,500000	46,290000
2,212785	446,995721	141,729	0,043634	22,500000	46,290000
2,235745	469,675035	145,191	0,052661	22,510000	46,295000
2,258733	492,836497	148,646	0,061879	22,500000	46,290000
2,281663	515,982010	152,104	0,071091	22,510000	46,295000
2,304717	539,301733	155,559	0,080372	22,490000	46,340000
2,327788	561,549201	159,017	0,089227	22,500000	46,265000
2,350769	584,776912	162,475	0,098471	22,500000	46,290000
2,373728	608,570195	165,933	0,107941	22,500000	46,265000
2,396714	631,258097	169,390	0,116971	22,490000	46,275000
2,419770	654,694370	172,848	0,126298	22,490000	46,275000
2,442698	677,058388	176,301	0,135199	22,490000	46,290000
2,465682	700,378111	179,756	0,144480	22,510000	46,270000
2,488734	722,782614	183,214	0,153397	22,490000	46,240000
2,511756	746,044677	186,667	0,162656	22,510000	46,295000
2,534695	769,040515	190,123	0,171808	22,500000	46,315000
2,557741	793,058309	193,580	0,181367	22,510000	46,255000
2,580792	816,011208	197,036	0,190502	22,490000	46,290000
2,603707	837,710280	200,494	0,199139	22,500000	46,265000
2,626720	860,904866	203,952	0,208370	22,500000	46,300000
2,649766	884,823286	207,409	0,217890	22,510000	46,245000
2,672726	906,430345	210,866	0,226489	22,510000	46,295000
2,695693	929,634746	214,324	0,235725	22,490000	46,250000
2,718747	953,767863	217,776	0,245330	22,510000	46,305000
2,741693	977,237261	221,233	0,254670	22,510000	46,280000
2,764684	999,493316	224,691	0,263528	22,510000	46,280000
2,787749	1021,949346	228,148	0,272466	22,500000	46,300000
2,810745	1045,359856	231,605	0,281783	22,500000	46,300000
2,833754	1067,772947	235,063	0,290704	22,500000	46,290000
2,856722	1091,084083	238,519	0,299981	22,500000	46,290000
2,879720	1115,650273	241,976	0,309759	22,500000	46,290000
2,902746	1137,199670	245,429	0,318335	22,490000	46,290000
2,925690	1161,375726	248,887	0,327958	22,500000	46,290000
2,948734	1183,656319	252,344	0,336825	22,500000	46,275000
2,971710	1207,358816	255,803	0,346259	22,490000	46,275000
2,994726	1229,489734	259,256	0,355067	22,500000	46,300000
3,017685	1252,335898	262,711	0,364160	22,500000	46,275000
3,040698	1275,662983	266,172	0,373444	22,510000	46,280000
3,063653	1298,500559	269,625	0,382533	22,500000	46,265000
3,086704	1322,036206	273,082	0,391900	22,510000	46,280000
3,109656	1344,849246	276,535	0,400980	22,510000	46,305000
3,132622	1367,636522	279,997	0,410049	22,500000	46,300000
3,155737	1391,222470	283,451	0,419437	22,510000	46,305000
3,178732	1413,569311	286,906	0,428331	22,500000	46,315000
3,201764	1436,556562	290,366	0,437479	22,500000	46,290000
3,224674	1460,690906	293,822	0,447085	22,500000	46,290000
3,247688	1482,440278	297,279	0,455741	22,490000	46,275000
3,270678	1505,460653	300,735	0,464903	22,500000	46,300000
3,254666	1491,015870	304,194	0,459154	22,500000	46,300000
3,231690	1467,772211	307,648	0,449903	22,500000	46,265000
3,208701	1444,012052	311,105	0,440447	22,490000	46,265000
3,185653	1420,509530	314,564	0,431093	22,510000	46,295000
3,162679	1397,106382	318,019	0,421778	22,500000	46,290000
3,139689	1372,307092	321,476	0,411908	22,500000	46,290000
3,116685	1350,433810	324,933	0,403203	22,510000	46,295000
3,093746	1326,374303	328,392	0,393627	22,500000	46,300000
3,070703	1303,063167	331,848	0,384349	22,500000	46,300000
3,047688	1279,569233	335,303	0,374999	22,510000	46,320000
3,024696	1256,224973	338,762	0,365708	22,500000	46,290000
3,001713	1232,389977	342,219	0,356221	22,510000	46,295000
2,978671	1209,361014	345,676	0,347056	22,510000	46,295000
2,955680	1185,261022	349,131	0,337464	22,510000	46,295000
2,932744	1162,423445	352,587	0,328375	22,510000	46,320000
2,909714	1139,452144	356,042	0,319232	22,510000	46,305000
2,886717	1116,830490	359,499	0,310229	22,510000	46,295000
2,863734	1092,323188	362,955	0,300475	22,500000	46,300000
2,840712	1069,020640	366,406	0,291200	22,510000	46,280000
2,817770	1046,381811	369,862	0,282190	22,510000	46,320000
2,794710	1022,513692	373,315	0,272690	22,490000	46,300000
2,771735	999,368179	376,772	0,263479	22,500000	46,275000
2,748706	977,353810	380,231	0,254717	22,510000	46,295000
2,725714	954,275773	383,685	0,245532	22,510000	46,295000
2,702707	931,421021	387,140	0,236436	22,490000	46,300000
2,679782	907,777412	390,595	0,227025	22,500000	46,300000
2,656801	884,565651	394,050	0,217787	22,510000	46,255000
2,633719	860,639869	397,507	0,208265	22,510000	46,280000
2,610759	838,201015	400,967	0,199334	22,500000	46,265000
2,587762	814,083847	404,423	0,189735	22,490000	46,275000
2,564760	792,433849	407,881	0,181119	22,510000	46,295000
2,541777	769,265026	411,338	0,171897	22,500000	46,290000
2,518728	746,169814	414,794	0,162706	22,510000	46,335000
2,495734	722,625579	418,248	0,153335	22,500000	46,250000
2,472752	700,277511	421,705	0,144440	22,510000	46,280000
2,449748	677,265723	425,164	0,135282	22,510000	46,280000
2,426772	653,996300	428,620	0,126021	22,510000	46,335000
2,403764	631,132960	432,073	0,116921	22,490000	46,315000
2,380748	607,066092	435,526	0,107342	22,510000	46,305000
2,357783	585,474982	438,983	0,098749	22,490000	46,300000
2,334733	562,038709	442,439	0,089421	22,500000	46,265000
2,311741	538,694449	445,893	0,080130	22,510000	46,280000
2,288723	515,649537	449,351	0,070958	22,500000	46,275000
2,265760	492,420599	452,807	0,061713	22,510000	46,335000
2,242718	469,833297	456,264	0,052724	22,500000	46,275000
2,219707	447,269306	459,720	0,043743	22,500000	46,240000
2,196733	424,050183	463,178	0,034502	22,510000	46,295000
2,173778	400,156299	466,634	0,024992	22,510000	46,305000
2,150783	377,210761	470,089	0,015860	22,490000	46,290000
2,127796	355,869926	473,545	0,007366	22,510000	46,280000
2,104715	332,640988	477,002	-0,001879	22,500000	46,300000
2,081767	309,629201	480,457	-0,011038	22,510000	46,280000
2,058749	286,185567	483,912	-0,020368	22,510000	46,295000
2,035767	263,630163	487,366	-0,029345	22,510000	46,270000
2,012697	241,182720	490,826	-0,038279	22,490000	46,300000
1,989718	217,955009	494,283	-0,047524	22,510000	46,305000
1,966747	194,543273	497,735	-0,056842	22,500000	46,290000
1,943774	172,038169	501,192	-0,065799	22,510000	46,320000
1,920779	149,940376	504,649	-0,074594	22,500000	46,265000
1,897757	126,263642	508,106	-0,084017	22,510000	46,305000
1,874725	104,331472	511,558	-0,092746	22,500000	46,290000
1,851781	82,158841	515,014	-0,101571	22,510000	46,305000
1,828774	59,097980	518,472	-0,110749	22,490000	46,265000
1,805788	35,927931	521,933	-0,119971	22,500000	46,275000
1,782802	13,139428	525,388	-0,129041	22,510000	46,295000
1,759804	-10,063746	528,842	-0,138275	22,510000	46,305000
1,736764	-32,577438	532,293	-0,147236	22,500000	46,275000
1,713804	-56,079960	535,752	-0,156590	22,510000	46,295000
1,690777	-79,939492	539,215	-0,166086	22,500000	46,300000
1,667773	-102,968456	542,670	-0,175251	22,500000	46,300000
1,644803	-127,301547	546,126	-0,184936	22,500000	46,290000
1,621768	-149,656976	549,587	-0,193833	22,500000	46,300000
1,598818	-173,417135	553,043	-0,203290	22,500000	46,275000
1,575824	-195,871938	556,496	-0,212227	22,510000	46,280000
1,552788	-219,449297	559,958	-0,221611	22,510000	46,295000
1,529811	-243,268344	563,415	-0,231091	22,510000	46,270000
1,506807	-265,723147	566,867	-0,240028	22,490000	46,315000
1,483836	-289,051458	570,325	-0,249312	22,500000	46,290000
1,460818	-312,661943	573,779	-0,258709	22,510000	46,280000
1,437827	-0,115323	577,236	-0,134316	22,490000	46,300000
1,414787	0,266224	580,692	-0,134164	22,490000	46,300000
1,391793	0,341061	584,152	-0,134134	22,510000	46,270000
1,368803	0,058888	587,607	-0,134247	22,510000	46,280000
1,345838	0,241687	591,062	-0,134174	22,490000	46,290000
1,322782	0,250275	594,519	-0,134170	22,500000	46,300000
1,299777	0,233099	597,973	-0,134177	22,480000	46,290000
1,276826	-0,282173	601,432	-0,134382	22,500000	46,290000
1,270808	-0,041712	602,332	-0,134287	22,500000	46,290000