File: Nanoindentation Datenauswertung/data/AR-SA-600-1-600-3,5um-diff_LF-4x4-2
Quasi static measurement routine
Tip parameters (shape,radius, material...)
01.09.2022

Piezo position[nm]	MEMS displ.[nm]	Time[ms]	Cap [pf]	Temp [°C]	Rh [%]
eoh

X-Pos [um]	Y-Pos [um]
0,000507	0,000268

POC
1,772016
1,279059	0,066249	1,215	-0,134366	22,530000	47,585000
1,287061	0,415898	2,417	-0,134227	22,530000	47,585000
1,295049	-0,116550	3,621	-0,134438	22,520000	47,570000
1,303041	-0,041712	4,824	-0,134409	22,520000	47,570000
1,311019	0,149674	6,026	-0,134333	22,520000	47,570000
1,319020	0,132498	7,229	-0,134339	22,510000	47,585000
1,327063	-0,257636	8,430	-0,134495	22,510000	47,585000
1,335046	-0,365598	9,631	-0,134538	22,520000	47,570000
1,343049	-0,175438	10,833	-0,134462	22,520000	47,570000
1,351047	-0,083425	12,035	-0,134425	22,520000	47,585000
1,359025	0,033125	13,238	-0,134379	22,520000	47,570000
1,367047	-0,083425	14,440	-0,134425	22,520000	47,570000
1,375043	-0,166850	15,643	-0,134458	22,520000	47,570000
1,383079	-0,074837	16,848	-0,134422	22,520000	47,570000
1,391053	0,191387	18,051	-0,134316	22,510000	47,545000
1,399014	0,074837	19,253	-0,134362	22,510000	47,545000
1,407024	0,049073	20,455	-0,134373	22,510000	47,545000
1,415037	-0,158262	21,656	-0,134455	22,520000	47,585000
1,422989	-0,241687	22,859	-0,134488	22,520000	47,585000
1,431068	0,024537	24,061	-0,134382	22,520000	47,610000
1,439043	-0,141086	25,263	-0,134448	22,520000	47,610000
1,447052	0,123911	26,463	-0,134343	22,520000	47,610000
1,454978	-0,041712	27,665	-0,134409	22,520000	47,555000
1,463065	0,041712	28,866	-0,134375	22,520000	47,555000
1,471013	0,033125	30,069	-0,134379	22,520000	47,570000
1,479049	-0,182799	31,271	-0,134465	22,530000	47,570000
1,487037	-0,050300	32,475	-0,134412	22,530000	47,570000
1,495041	0,000000	33,677	-0,134392	22,520000	47,585000
1,503034	0,099374	34,880	-0,134353	22,520000	47,585000
1,511045	0,240460	36,080	-0,134296	22,520000	47,585000
1,519048	-0,107962	37,282	-0,134435	22,520000	47,585000
1,527035	-0,041712	38,484	-0,134409	22,520000	47,585000
1,535037	0,099374	39,687	-0,134353	22,530000	47,595000
1,542994	0,024537	40,889	-0,134382	22,530000	47,595000
1,551019	-0,066249	42,091	-0,134418	22,510000	47,585000
1,559035	-0,050300	43,297	-0,134412	22,520000	47,595000
1,567053	0,123911	44,500	-0,134343	22,520000	47,595000
1,575006	-0,307936	45,703	-0,134515	22,520000	47,585000
1,583008	0,033125	46,903	-0,134379	22,520000	47,585000
1,591018	0,407310	48,105	-0,134230	22,520000	47,585000
1,599015	-0,365598	49,308	-0,134538	22,520000	47,595000
1,607035	0,049073	50,509	-0,134373	22,520000	47,595000
1,615050	-0,033125	51,712	-0,134405	22,520000	47,595000
1,623062	-0,199974	52,914	-0,134472	22,520000	47,595000
1,631036	-0,066249	54,117	-0,134418	22,530000	47,585000
1,639008	-0,141086	55,319	-0,134448	22,530000	47,585000
1,647048	-0,099374	56,522	-0,134432	22,530000	47,585000
1,655070	-0,175438	57,728	-0,134462	22,510000	47,585000
1,663009	-0,316524	58,931	-0,134518	22,510000	47,585000
1,671033	-97,192505	60,133	-0,173075	22,510000	47,585000
1,679046	-88,899085	61,337	-0,169774	22,520000	47,585000
1,687029	-80,820362	62,539	-0,166559	22,520000	47,585000
1,695062	-73,740283	63,739	-0,163741	22,520000	47,585000
1,702996	-65,121751	64,941	-0,160311	22,520000	47,585000
1,711011	-56,960830	66,142	-0,157062	22,520000	47,570000
1,718994	-49,863576	67,345	-0,154238	22,520000	47,570000
1,726992	-41,187382	68,550	-0,150785	22,520000	47,570000
1,735031	-33,666870	69,752	-0,147792	22,520000	47,585000
1,742980	-26,835839	70,954	-0,145073	22,520000	47,585000
1,751007	-18,715403	72,158	-0,141841	22,520000	47,585000
1,759030	-10,430571	73,362	-0,138543	22,530000	47,570000
1,767019	-2,626659	74,564	-0,135438	22,530000	47,570000
1,775030	6,150135	75,765	-0,131944	22,530000	47,570000
1,782964	13,205677	76,965	-0,129136	22,530000	47,570000
1,791020	21,923583	78,171	-0,125667	22,520000	47,570000
1,798991	28,596351	79,372	-0,123011	22,520000	47,595000
1,807063	36,840698	80,576	-0,119729	22,520000	47,595000
1,815013	44,620073	81,778	-0,116633	22,520000	47,595000
1,823028	52,598196	82,979	-0,113458	22,520000	47,595000
1,831033	60,384932	84,180	-0,110359	22,530000	47,585000
1,839023	69,426723	85,383	-0,106760	22,510000	47,555000
1,846996	77,347185	86,585	-0,103608	22,510000	47,555000
1,855045	84,618650	87,786	-0,100714	22,530000	47,585000
1,863043	93,161118	88,989	-0,097314	22,530000	47,585000
1,871015	100,608021	90,189	-0,094350	22,530000	47,530000
1,879038	108,154297	91,391	-0,091347	22,510000	47,595000
1,886982	116,273506	92,592	-0,088115	22,510000	47,595000
1,895012	124,949700	93,794	-0,084662	22,510000	47,595000
1,902965	131,831030	94,997	-0,081923	22,510000	47,595000
1,911009	139,842278	96,199	-0,078735	22,530000	47,570000
1,919003	147,813040	97,400	-0,075563	22,520000	47,555000
1,926997	156,438933	98,603	-0,072129	22,520000	47,555000
1,935020	163,934909	99,803	-0,069146	22,510000	47,610000
1,942980	172,020994	101,005	-0,065928	22,510000	47,610000
1,951040	179,359934	102,207	-0,063007	22,520000	47,585000
1,959006	188,525636	103,409	-0,059359	22,520000	47,585000
1,957968	187,195744	104,612	-0,059888	22,520000	47,585000
1,949994	180,065366	105,814	-0,062726	22,520000	47,585000
1,942022	170,657977	107,018	-0,066470	22,520000	47,585000
1,933997	162,589068	108,219	-0,069682	22,520000	47,585000
1,925954	155,441514	109,422	-0,072526	22,520000	47,585000
1,917977	147,155455	110,624	-0,075824	22,520000	47,585000
1,910007	137,972578	111,828	-0,079479	22,510000	47,570000
1,902034	129,861956	113,030	-0,082707	22,510000	47,570000
1,894019	122,540191	114,231	-0,085621	22,510000	47,570000
1,886006	114,470055	115,434	-0,088833	22,520000	47,585000
1,878014	106,183996	116,635	-0,092131	22,520000	47,585000
1,870020	98,405848	117,839	-0,095227	22,530000	47,585000
1,861978	90,278050	119,041	-0,098461	22,530000	47,585000
1,854020	82,166202	120,242	-0,101690	22,530000	47,585000
1,845991	73,681395	121,445	-0,105067	22,530000	47,585000
1,838001	65,137700	122,646	-0,108467	22,530000	47,585000
1,830030	57,982785	123,849	-0,111315	22,510000	47,555000
1,822003	48,899282	125,052	-0,114930	22,510000	47,555000
1,814034	42,118552	126,253	-0,117629	22,530000	47,595000
1,806005	34,097489	127,453	-0,120821	22,530000	47,570000
1,798018	26,227328	128,656	-0,123954	22,530000	47,570000
1,790036	16,920540	129,861	-0,127658	22,520000	47,555000
1,782035	8,850404	131,063	-0,130870	22,520000	47,555000
1,774022	1,852524	132,267	-0,133655	22,520000	47,595000
1,765982	-6,207797	133,471	-0,136863	22,520000	47,595000
1,758022	-14,352770	134,671	-0,140104	22,520000	47,595000
1,750057	-22,654778	135,875	-0,143409	22,520000	47,570000
1,741994	-30,183878	137,076	-0,146405	22,520000	47,570000
1,733967	-39,201133	138,277	-0,149994	22,520000	47,570000
1,726016	-46,597735	139,479	-0,152938	22,520000	47,545000
1,718045	-54,318222	140,680	-0,156011	22,520000	47,545000
1,710020	-63,434850	141,881	-0,159639	22,520000	47,570000
1,702033	-70,283056	143,082	-0,162365	22,520000	47,570000
1,693995	-79,126099	144,284	-0,165884	22,530000	47,595000
1,686013	-87,071098	145,487	-0,169046	22,530000	47,595000
1,678064	-94,957208	146,687	-0,172185	22,530000	47,595000
1,670014	-102,620034	147,890	-0,175235	22,530000	47,585000
1,662051	-111,353889	149,092	-0,178711	22,530000	47,585000
1,654039	-118,292880	150,294	-0,181473	22,530000	47,585000
1,646050	-125,972882	151,496	-0,184529	22,520000	47,530000
1,638046	-135,529945	152,697	-0,188333	22,520000	47,530000
1,630033	-143,524017	153,899	-0,191515	22,530000	47,555000
1,622028	-150,396759	155,103	-0,194250	22,520000	47,570000
1,614056	-159,048416	156,303	-0,197693	22,520000	47,570000
1,606093	-166,876865	157,506	-0,200809	22,530000	47,595000
1,598046	-174,224393	158,708	-0,203733	22,530000	47,595000
1,590032	-183,165584	159,910	-0,207292	22,520000	47,570000
1,582016	-190,163464	161,111	-0,210077	22,520000	47,570000
1,574029	-198,931670	162,312	-0,213567	22,520000	47,570000
1,566057	-206,394521	163,513	-0,216537	22,530000	47,555000
1,558040	-215,121015	164,717	-0,220010	22,530000	47,555000
1,550084	-222,899164	165,920	-0,223106	22,520000	47,570000
1,542016	-230,652776	167,123	-0,226192	22,520000	47,570000
1,534055	-238,805110	168,327	-0,229437	22,520000	47,570000
1,526065	-247,756115	169,530	-0,232999	22,520000	47,555000
1,518049	-256,242148	170,731	-0,236376	22,520000	47,555000
1,510060	-263,604399	171,934	-0,239307	22,520000	47,555000
1,502033	-271,524861	173,137	-0,242459	22,530000	47,570000
1,494083	-279,120210	174,340	-0,245482	22,530000	47,570000
1,486053	-288,062628	175,541	-0,249041	22,520000	47,570000
1,478085	-295,069095	176,742	-0,251830	22,520000	47,570000
1,470072	-303,038631	177,943	-0,255001	22,520000	47,570000
1,462079	-0,099374	179,145	-0,134432	22,530000	47,555000
1,454038	-0,307936	180,348	-0,134515	22,530000	47,555000
1,446074	-0,116550	181,551	-0,134438	22,520000	47,585000
1,438037	0,158262	182,752	-0,134329	22,520000	47,585000
1,430046	-0,241687	183,952	-0,134488	22,520000	47,585000
1,422077	0,066249	185,156	-0,134366	22,520000	47,610000
1,414031	-0,107962	186,359	-0,134435	22,520000	47,610000
1,406050	-0,158262	187,563	-0,134455	22,510000	47,585000
1,398051	-0,125137	188,767	-0,134442	22,510000	47,585000
1,390038	-0,058888	189,970	-0,134416	22,510000	47,585000
1,382028	-0,066249	191,173	-0,134418	22,520000	47,570000
1,374002	-0,107962	192,375	-0,134435	22,520000	47,570000
1,366084	-0,041712	193,576	-0,134409	22,510000	47,585000
1,358031	0,107962	194,778	-0,134349	22,510000	47,585000
1,350044	0,049073	195,980	-0,134373	22,530000	47,555000
1,342064	-0,050300	197,181	-0,134412	22,530000	47,555000
1,334060	0,149674	198,383	-0,134333	22,530000	47,555000
1,326067	0,107962	199,584	-0,134349	22,510000	47,555000
1,318063	0,191387	200,785	-0,134316	22,510000	47,555000
1,310035	-0,125137	201,987	-0,134442	22,510000	47,585000
1,302052	-0,158262	203,191	-0,134455	22,510000	47,585000
1,294054	-0,058888	204,393	-0,134416	22,510000	47,585000
1,286072	0,007361	205,595	-0,134389	22,520000	47,530000
1,278041	-0,008588	206,797	-0,134396	22,520000	47,530000
1,272060	-0,208562	207,697	-0,134475	22,520000	47,595000

X-Pos [um]	Y-Pos [um]
0,000431	10,009395

POC
1,766038
1,276096	-0,299348	1,645	-0,134488	22,530000	47,555000
1,287104	-0,141086	3,297	-0,134425	22,520000	47,555000
1,298096	-0,099374	4,950	-0,134409	22,530000	47,555000
1,309096	-0,024537	6,602	-0,134379	22,530000	47,555000
1,320116	0,158262	8,255	-0,134306	22,530000	47,555000
1,331115	-0,332473	9,905	-0,134501	22,520000	47,595000
1,342088	0,074837	11,555	-0,134339	22,520000	47,595000
1,353073	-0,090786	13,209	-0,134405	22,530000	47,585000
1,364072	0,000000	14,864	-0,134369	22,510000	47,570000
1,375059	-0,141086	16,515	-0,134425	22,520000	47,555000
1,386073	0,041712	18,167	-0,134353	22,520000	47,555000
1,397057	-0,083425	19,821	-0,134402	22,520000	47,555000
1,408057	0,116550	21,477	-0,134323	22,520000	47,570000
1,419064	0,017176	23,128	-0,134362	22,520000	47,570000
1,430106	-0,141086	24,779	-0,134425	22,510000	47,570000
1,441101	-0,041712	26,433	-0,134386	22,530000	47,570000
1,452099	-0,123911	28,087	-0,134418	22,530000	47,570000
1,463116	-0,198748	29,738	-0,134448	22,530000	47,570000
1,474088	-0,290760	31,392	-0,134485	22,530000	47,530000
1,485065	0,116550	33,045	-0,134323	22,510000	47,555000
1,496045	-0,207336	34,698	-0,134452	22,510000	47,555000
1,507083	-0,414671	36,349	-0,134534	22,520000	47,570000
1,518053	0,058888	38,004	-0,134346	22,520000	47,570000
1,529081	-0,050300	39,656	-0,134389	22,520000	47,570000
1,540025	-0,090786	41,310	-0,134405	22,530000	47,545000
1,551090	-0,266224	42,962	-0,134475	22,530000	47,545000
1,562054	0,017176	44,617	-0,134362	22,520000	47,585000
1,573051	-0,041712	46,269	-0,134386	22,520000	47,585000
1,584091	-0,107962	47,921	-0,134412	22,510000	47,585000
1,595043	-0,215923	49,574	-0,134455	22,510000	47,585000
1,606056	-0,141086	51,227	-0,134425	22,510000	47,585000
1,617048	-0,083425	52,878	-0,134402	22,530000	47,555000
1,628042	-0,282173	54,532	-0,134481	22,530000	47,555000
1,639100	-0,157035	56,185	-0,134432	22,530000	47,555000
1,650064	-0,182799	57,836	-0,134442	22,530000	47,555000
1,661055	-0,198748	59,489	-0,134448	22,530000	47,530000
1,672108	-0,266224	61,141	-0,134475	22,510000	47,595000
1,683078	-0,332473	62,795	-0,134501	22,520000	47,595000
1,694081	-0,348422	64,449	-0,134508	22,530000	47,570000
1,705075	-0,431847	66,103	-0,134541	22,530000	47,570000
1,716023	-43,713440	67,755	-0,151767	22,510000	47,585000
1,727055	-31,954205	69,409	-0,147087	22,520000	47,570000
1,738046	-22,056081	71,064	-0,143147	22,520000	47,570000
1,749062	-10,338558	72,719	-0,138484	22,530000	47,585000
1,760071	-0,523860	74,375	-0,134578	22,530000	47,585000
1,771042	10,994916	76,027	-0,129993	22,530000	47,585000
1,782050	22,945538	77,680	-0,125237	22,510000	47,595000
1,793049	33,292684	79,335	-0,121119	22,510000	47,595000
1,804052	44,512111	80,989	-0,116653	22,530000	47,585000
1,815052	54,293685	82,641	-0,112760	22,530000	47,585000
1,826046	65,944959	84,292	-0,108123	22,530000	47,585000
1,836981	76,166968	85,945	-0,104055	22,510000	47,570000
1,848034	86,853947	87,598	-0,099801	22,510000	47,570000
1,859062	98,148212	89,250	-0,095306	22,530000	47,555000
1,870046	109,501364	90,905	-0,090788	22,520000	47,570000
1,881031	120,562529	92,558	-0,086385	22,530000	47,555000
1,892099	130,676576	94,209	-0,082360	22,530000	47,555000
1,903006	141,612604	95,862	-0,078007	22,530000	47,570000
1,914076	152,084887	97,514	-0,073839	22,530000	47,570000
1,925013	163,328851	99,166	-0,069364	22,530000	47,570000
1,936019	175,180100	100,818	-0,064647	22,520000	47,555000
1,947063	184,994798	102,471	-0,060741	22,540000	47,555000
1,958018	197,003082	104,126	-0,055962	22,540000	47,555000
1,969096	207,350228	105,780	-0,051844	22,540000	47,555000
1,980087	218,959789	107,432	-0,047223	22,520000	47,585000
1,991039	229,439433	109,085	-0,043052	22,530000	47,555000
2,002042	240,127640	110,740	-0,038798	22,520000	47,570000
2,013096	251,711438	112,392	-0,034188	22,520000	47,570000
2,024037	261,585025	114,044	-0,030258	22,520000	47,570000
2,035014	273,702497	115,698	-0,025436	22,530000	47,555000
2,046050	283,891381	117,354	-0,021380	22,530000	47,555000
2,057038	294,494936	119,006	-0,017160	22,520000	47,595000
2,067981	306,038248	120,656	-0,012566	22,530000	47,555000
2,079049	316,651617	122,310	-0,008342	22,530000	47,555000
2,090062	328,311479	123,961	-0,003701	22,530000	47,555000
2,101014	337,951967	125,614	0,000136	22,520000	47,545000
2,112047	349,013132	127,266	0,004538	22,520000	47,545000
2,123014	361,329352	128,916	0,009440	22,510000	47,570000
2,134061	371,210300	130,570	0,013373	22,530000	47,570000
2,141038	378,590953	132,227	0,016310	22,530000	47,570000
2,133087	370,421443	133,878	0,013059	22,510000	47,545000
2,122022	359,858374	135,532	0,008854	22,520000	47,545000
2,111029	348,414435	137,185	0,004300	22,520000	47,545000
2,100012	337,610906	138,838	0,000000	22,520000	47,555000
2,089025	325,028463	140,489	-0,005008	22,520000	47,555000
2,078052	314,723029	142,142	-0,009109	22,520000	47,555000
2,067082	303,644688	143,796	-0,013519	22,530000	47,585000
2,056025	291,429069	145,447	-0,018380	22,510000	47,545000
2,045064	281,007086	147,099	-0,022528	22,520000	47,570000
2,034060	270,003582	148,752	-0,026908	22,520000	47,570000
2,023013	258,160922	150,407	-0,031621	22,520000	47,530000
2,012032	248,022338	152,061	-0,035656	22,520000	47,530000
2,001056	236,661825	153,713	-0,040178	22,520000	47,595000
1,990062	224,984787	155,366	-0,044825	22,520000	47,595000
1,979064	213,857373	157,021	-0,049254	22,530000	47,545000
1,968049	203,086968	158,673	-0,053541	22,530000	47,545000
1,957027	192,906672	160,326	-0,057592	22,530000	47,545000
1,946067	181,171973	161,979	-0,062263	22,520000	47,570000
1,935063	170,342680	163,632	-0,066573	22,520000	47,570000
1,924083	158,508607	165,285	-0,071283	22,510000	47,555000
1,913040	147,322305	166,935	-0,075735	22,520000	47,545000
1,902027	136,626737	168,587	-0,079992	22,520000	47,545000
1,891037	125,349649	170,240	-0,084480	22,520000	47,545000
1,880075	113,224815	171,893	-0,089306	22,520000	47,610000
1,869039	102,329273	173,545	-0,093642	22,530000	47,545000
1,858024	91,882754	175,197	-0,097800	22,510000	47,570000
1,847034	80,762700	176,853	-0,102226	22,510000	47,570000
1,836025	69,302813	178,508	-0,106787	22,530000	47,545000
1,825080	58,057622	180,162	-0,111262	22,530000	47,545000
1,814069	48,260099	181,816	-0,115162	22,530000	47,545000
1,803028	36,243228	183,468	-0,119944	22,530000	47,585000
1,792083	26,028580	185,120	-0,124010	22,530000	47,530000
1,781041	15,083965	186,775	-0,128366	22,510000	47,545000
1,770005	3,707502	188,427	-0,132894	22,510000	47,545000
1,759025	-6,689944	190,082	-0,137032	22,510000	47,545000
1,748037	-17,792822	191,733	-0,141451	22,510000	47,585000
1,737062	-29,186460	193,389	-0,145985	22,540000	47,530000
1,726052	-40,572737	195,043	-0,150517	22,530000	47,595000
1,715094	-52,182298	196,695	-0,155138	22,530000	47,595000
1,704089	-62,968652	198,347	-0,159431	22,530000	47,595000
1,693067	-72,650852	199,998	-0,163284	22,520000	47,555000
1,682104	-83,995417	201,649	-0,167799	22,520000	47,555000
1,671065	-94,607559	203,304	-0,172023	22,530000	47,570000
1,660049	-106,242884	204,957	-0,176654	22,530000	47,570000
1,649064	-116,722529	206,611	-0,180825	22,530000	47,595000
1,638079	-128,107579	208,261	-0,185356	22,530000	47,595000
[...]
2,107820	443,935989	141,747	0,042427	22,510000	47,345000
2,148835	485,530681	147,906	0,058981	22,540000	47,345000
2,189805	525,247085	154,068	0,074789	22,530000	47,360000
2,230812	566,359630	160,229	0,091151	22,530000	47,345000
2,271860	607,240303	166,395	0,107422	22,530000	47,345000
2,312839	648,128337	172,556	0,123695	22,530000	47,360000
2,353836	689,648192	178,718	0,140220	22,530000	47,345000
2,394774	729,214922	184,882	0,155968	22,530000	47,375000
2,435787	769,977819	191,046	0,172191	22,510000	47,400000
2,476786	811,497674	197,206	0,188716	22,530000	47,360000
2,517844	852,735356	203,371	0,205129	22,520000	47,360000
2,558789	893,757116	209,539	0,221456	22,510000	47,385000
2,599801	933,198708	215,701	0,237153	22,520000	47,385000
2,640803	973,887995	221,862	0,253348	22,520000	47,360000
2,681804	1014,991952	228,027	0,269707	22,520000	47,335000
2,722781	1055,531564	234,191	0,285842	22,530000	47,375000
2,763831	1096,875981	240,351	0,302297	22,540000	47,335000
2,804782	1137,299044	246,515	0,318385	22,540000	47,375000
2,845789	1177,863193	252,671	0,334530	22,520000	47,360000
2,886751	1219,881144	258,831	0,351253	22,520000	47,335000
2,927766	1260,188884	264,991	0,367295	22,520000	47,360000
2,968740	1300,311371	271,160	0,383264	22,520000	47,345000
3,009745	1340,992070	277,319	0,399455	22,530000	47,345000
3,050733	1382,694724	283,479	0,416053	22,530000	47,360000
3,091761	1422,950936	289,642	0,432075	22,530000	47,335000
3,132768	1463,690523	295,802	0,448289	22,530000	47,345000
3,173752	1505,384589	301,962	0,464883	22,510000	47,335000
3,214781	1544,577134	308,128	0,480482	22,530000	47,385000
3,255744	1585,872478	314,289	0,496917	22,530000	47,345000
3,296703	1627,824179	320,449	0,513614	22,520000	47,375000
3,337713	1667,632597	326,611	0,529458	22,530000	47,360000
3,378805	1707,731774	332,773	0,545417	22,520000	47,335000
3,419695	1750,181572	338,930	0,562312	22,530000	47,360000
3,460655	1790,488085	345,094	0,578354	22,530000	47,345000
3,501635	1831,734355	351,255	0,594771	22,520000	47,360000
3,542666	1872,173367	357,417	0,610865	22,520000	47,360000
3,583696	1913,942270	363,578	0,627489	22,530000	47,335000
3,624662	1954,332208	369,740	0,643564	22,530000	47,375000
3,665629	1995,387092	375,900	0,659904	22,530000	47,335000
3,706649	2035,486269	382,062	0,675864	22,520000	47,345000
3,747618	2075,841856	388,225	0,691925	22,520000	47,345000
3,788638	2116,605979	394,382	0,708149	22,510000	47,335000
3,829631	2157,609336	400,546	0,724469	22,530000	47,320000
3,870688	2198,813894	406,707	0,740868	22,520000	47,345000
3,911640	2239,179295	412,865	0,756934	22,530000	47,345000
3,952607	2280,324965	419,022	0,773310	22,520000	47,360000
3,993589	2321,711095	425,184	0,789781	22,530000	47,360000
4,034661	2362,125569	431,350	0,805866	22,520000	47,385000
4,075595	2402,141322	437,512	0,821792	22,540000	47,360000
4,116618	2442,804845	443,678	0,837977	22,540000	47,375000
4,157609	2484,051115	449,837	0,854393	22,530000	47,360000
4,198594	2524,481539	455,992	0,870484	22,520000	47,360000
4,239571	2564,838352	462,154	0,886546	22,530000	47,335000
4,280590	2605,834348	468,317	0,902862	22,520000	47,345000
4,321595	2647,287953	474,477	0,919361	22,530000	47,345000
4,362539	2687,411668	480,634	0,935330	22,510000	47,345000
4,403527	2728,790437	486,796	0,951799	22,530000	47,335000
4,444596	2768,896975	492,955	0,967761	22,520000	47,345000
4,485531	2809,852485	499,114	0,984062	22,510000	47,360000
4,526546	2850,125874	505,275	1,000090	22,520000	47,335000
4,567530	2891,894777	511,436	1,016714	22,510000	47,345000
4,608481	2932,533763	517,597	1,032889	22,520000	47,345000
4,649549	2972,158154	523,756	1,048659	22,530000	47,345000
4,647520	2971,177911	529,917	1,048269	22,520000	47,375000
4,606590	2928,261915	536,081	1,031188	22,520000	47,345000
4,565574	2887,497792	542,243	1,014964	22,540000	47,345000
4,524526	2844,980518	548,408	0,998042	22,530000	47,335000
4,483536	2803,618925	554,569	0,981581	22,530000	47,360000
4,442586	2762,640105	560,728	0,965271	22,530000	47,345000
4,401574	2721,759432	566,890	0,949000	22,520000	47,335000
4,360618	2680,389251	573,048	0,932535	22,540000	47,360000
4,319621	2639,268118	579,210	0,916169	22,540000	47,345000
4,278592	2597,864812	585,377	0,899690	22,530000	47,320000
4,237645	2556,186695	591,538	0,883103	22,520000	47,375000
4,196612	2514,118444	597,699	0,866359	22,530000	47,335000
4,155672	2472,490627	603,858	0,849792	22,510000	47,385000
4,114648	2432,350964	610,022	0,833816	22,520000	47,345000
4,073619	2389,791977	616,186	0,816877	22,520000	47,375000
4,032718	2348,545707	622,344	0,800461	22,520000	47,360000
3,991640	2307,641724	628,508	0,784182	22,530000	47,360000
3,950689	2266,861652	634,669	0,767951	22,520000	47,335000
3,909674	2225,042449	640,829	0,751307	22,530000	47,345000
3,868592	2183,804766	646,990	0,734895	22,520000	47,360000
3,827686	2143,315454	653,149	0,718780	22,510000	47,335000
3,786657	2101,430002	659,321	0,702109	22,510000	47,360000
3,745697	2061,032703	665,479	0,686031	22,520000	47,360000
3,704705	2019,636758	671,641	0,669556	22,530000	47,360000
3,663699	1978,640762	677,803	0,653239	22,520000	47,375000
3,622726	1938,367374	683,968	0,637210	22,530000	47,375000
3,581722	1897,338254	690,129	0,620881	22,510000	47,320000
3,540740	1855,992610	696,288	0,604425	22,530000	47,345000
3,499759	1815,221125	702,453	0,588198	22,520000	47,335000
3,458736	1773,260835	708,617	0,571498	22,530000	47,305000
3,417734	1732,388750	714,779	0,555231	22,520000	47,345000
3,376765	1692,231912	720,939	0,539249	22,520000	47,335000
3,335816	1650,155072	727,103	0,522502	22,530000	47,320000
3,294721	1609,799486	733,267	0,506440	22,520000	47,360000
3,253761	1569,251286	739,433	0,490302	22,530000	47,335000
3,212815	1527,931405	745,618	0,473857	22,510000	47,305000
3,171775	1486,286413	751,784	0,457282	22,540000	47,345000
3,130819	1446,246123	757,945	0,441346	22,530000	47,375000
3,089845	1405,773987	764,107	0,425238	22,530000	47,360000
3,048775	1364,585378	770,268	0,408845	22,530000	47,345000
3,007803	1324,080117	776,436	0,392724	22,530000	47,360000
2,966786	1282,269502	782,594	0,376083	22,520000	47,375000
2,925815	1242,196088	788,763	0,360134	22,520000	47,335000
2,884787	1200,608757	794,928	0,343583	22,520000	47,320000
2,843833	1159,612761	801,087	0,327266	22,510000	47,335000
2,802772	1119,231411	807,247	0,311194	22,530000	47,375000
2,761860	1077,537345	813,411	0,294600	22,520000	47,320000
2,720843	1037,355969	819,577	0,278608	22,530000	47,360000
2,679862	997,356166	825,742	0,262688	22,520000	47,320000
2,638835	955,679275	831,908	0,246101	22,530000	47,320000
2,597821	914,939689	838,073	0,229886	22,510000	47,335000
2,556880	874,218505	844,241	0,213679	22,530000	47,320000
2,515863	833,313295	850,400	0,197399	22,520000	47,345000
2,474854	793,123332	856,556	0,181403	22,530000	47,335000
2,433882	752,343259	862,713	0,165173	22,520000	47,345000
2,392815	711,546011	868,880	0,148936	22,520000	47,360000
2,351840	671,439473	875,037	0,132973	22,530000	47,335000
2,310858	630,575976	881,199	0,116709	22,530000	47,335000
2,269874	589,721066	887,363	0,100449	22,520000	47,320000
2,228864	549,572815	893,527	0,084470	22,530000	47,345000
2,187849	507,969535	899,690	0,067912	22,520000	47,345000
2,146920	468,294843	905,847	0,052122	22,530000	47,305000
2,105847	428,054580	912,006	0,036106	22,530000	47,345000
2,064820	386,809536	918,168	0,019690	22,520000	47,320000
2,023838	346,943458	924,328	0,003824	22,510000	47,360000
1,982872	306,029660	930,492	-0,012460	22,530000	47,335000
1,941873	266,055620	936,653	-0,028370	22,510000	47,345000
1,900853	225,550359	942,817	-0,044491	22,530000	47,345000
1,859846	184,213303	948,979	-0,060943	22,530000	47,335000
1,818869	145,177793	955,139	-0,076479	22,530000	47,335000
1,777812	105,137504	961,300	-0,092415	22,510000	47,375000
1,736837	64,381968	967,467	-0,108636	22,530000	47,335000
1,695874	24,207954	973,629	-0,124625	22,530000	47,335000
1,654857	-17,576898	979,790	-0,141255	22,520000	47,345000
1,613929	-57,808574	985,950	-0,157268	22,530000	47,360000
1,572881	-97,333592	992,109	-0,172999	22,510000	47,360000
1,531884	-138,447364	998,265	-0,189362	22,520000	47,320000
1,490907	-179,110886	1004,431	-0,205546	22,520000	47,295000
1,449858	-220,016096	1010,590	-0,221826	22,540000	47,360000
1,408867	-261,245191	1016,751	-0,238235	22,510000	47,375000
1,367913	-299,398604	1022,919	-0,253420	22,520000	47,360000
1,326871	-334,386778	1029,081	-0,267346	22,530000	47,335000
1,285883	-0,067476	1035,237	-0,134287	22,510000	47,305000
1,244896	-0,074837	1041,400	-0,134290	22,510000	47,335000
1,203891	-0,290760	1047,564	-0,134375	22,530000	47,335000
1,165897	-0,257636	1053,272	-0,134362	22,530000	47,320000