File: Nanoindentation Datenauswertung/data/array-partial unload
Quasi static measurement routine
Tip parameters (shape,radius, material...)
11.07.2022

Piezo position[nm]	MEMS displ.[nm]	Time[ms]	Cap [pf]
eoh

X-Pos [um]	Y-Pos [um]
0,000000	0,000000

POC
2,681934
2,405916	-1,281457	0,801	-0,104177
2,431946	-4,329277	1,454	-0,105500
2,457919	-5,671488	2,104	-0,106083
2,483967	-8,780062	2,764	-0,107432
2,509957	-14,268163	3,428	-0,109813
2,535946	-19,571753	4,090	-0,112115
2,561974	-24,327432	4,751	-0,114179
2,587942	-15,060214	5,407	-0,110157
2,613957	-3,232332	6,074	-0,105024
2,639951	10,852445	6,736	-0,098911
2,665981	27,862408	7,400	-0,091529
2,691948	46,458723	8,054	-0,083458
2,717917	64,201109	8,709	-0,075758
2,743892	74,504518	9,362	-0,071286
2,769954	87,918752	10,016	-0,065464
2,781982	93,100833	10,671	-0,063215
2,781909	92,430291	11,351	-0,063506
2,781899	92,917447	12,006	-0,063295
2,781902	92,369537	12,675	-0,063533
2,781949	92,491044	13,330	-0,063480
2,781957	92,307658	13,992	-0,063560
2,781933	91,271466	14,646	-0,064009
2,781964	92,491044	15,308	-0,063480
2,759971	75,784850	15,962	-0,070730
2,733891	57,676816	16,618	-0,078589
2,707897	38,654099	17,273	-0,086845
2,681897	20,485311	17,927	-0,094730
2,705944	37,678661	18,564	-0,087269
2,731916	56,152344	19,216	-0,079251
2,757950	75,114307	19,872	-0,071021
2,783913	92,856693	20,540	-0,063321
2,809900	110,538324	21,229	-0,055647
2,835976	126,023816	21,882	-0,048927
2,861924	140,230100	22,568	-0,042761
2,887956	153,339439	23,246	-0,037072
2,913959	167,362336	23,902	-0,030986
2,939963	180,470550	24,585	-0,025297
2,965929	195,773780	25,260	-0,018655
2,991914	211,199642	25,944	-0,011960
3,017908	223,393172	26,603	-0,006668
3,043962	236,502511	27,276	-0,000979
3,069924	249,366584	27,931	0,004604
3,095921	262,902326	28,594	0,010479
3,121935	277,108610	29,252	0,016644
3,147920	286,436582	29,906	0,020692
3,173908	299,667429	30,574	0,026435
3,181878	302,898636	31,248	0,027837
3,181893	302,959389	31,912	0,027863
3,181903	302,288846	32,577	0,027572
3,181890	301,800565	33,233	0,027360
3,181857	301,862444	33,890	0,027387
3,181920	301,679057	34,541	0,027308
3,181868	301,983952	35,202	0,027440
3,181910	301,923198	35,861	0,027414
3,155949	282,290692	36,528	0,018893
3,129916	264,426798	37,180	0,011140
3,103832	247,294202	37,833	0,003705
3,077943	227,173414	38,489	-0,005028
3,051934	208,943872	39,141	-0,012939
3,025909	190,896592	39,818	-0,020772
2,999909	171,995383	40,483	-0,028975
2,987926	163,886989	41,124	-0,032494
3,013907	181,567495	41,792	-0,024821
3,039918	199,432514	42,458	-0,017067
3,065907	219,430669	43,119	-0,008388
3,091899	236,745527	43,772	-0,000874
3,117893	256,135018	44,434	0,007542
3,143932	274,059665	45,097	0,015321
3,169890	293,265769	45,790	0,023656
3,195958	311,983592	46,470	0,031780
3,221842	329,724852	47,139	0,039479
3,247868	335,212954	47,796	0,041861
3,273893	347,772132	48,484	0,047312
3,299909	363,075362	49,174	0,053954
3,325840	376,550349	49,840	0,059802
3,351815	388,988020	50,517	0,065200
3,377851	402,463008	51,171	0,071048
3,403888	417,034940	51,872	0,077372
3,429854	424,838440	52,557	0,080759
3,455873	438,434935	53,242	0,086660
3,481854	453,189129	53,916	0,093063
3,507851	467,700308	54,594	0,099361
3,533817	483,247678	55,248	0,106108
3,559777	499,709731	55,900	0,113253
3,581803	513,122840	56,596	0,119074
3,581750	513,732629	57,268	0,119339
3,581787	513,732629	57,940	0,119339
3,581780	513,366980	58,595	0,119180
3,581811	513,366980	59,250	0,119180
3,581785	513,306227	59,905	0,119154
3,581730	513,245473	60,578	0,119127
3,581769	512,635684	61,248	0,118863
3,569795	504,160516	61,915	0,115185
3,543820	485,260432	62,599	0,106982
3,517793	466,969011	63,279	0,099043
3,491808	448,677590	63,954	0,091105
3,465822	430,630310	64,629	0,083272
3,439849	411,790980	65,299	0,075096
3,413856	393,256543	65,980	0,067052
3,387820	375,148510	66,662	0,059193
3,361853	358,319682	67,350	0,051890
3,335810	338,017758	68,004	0,043079
3,309889	319,908599	68,664	0,035219
3,283829	301,434917	69,354	0,027202
3,303845	315,946096	70,009	0,033500
3,329852	334,054129	70,701	0,041358
3,355845	351,979902	71,362	0,049138
3,381841	370,575092	72,036	0,057208
3,407845	389,597809	72,713	0,065464
3,433867	407,766597	73,392	0,073350
3,459841	426,362912	74,086	0,081420
3,485825	444,226806	74,749	0,089173
3,511821	462,334839	75,450	0,097032
3,537858	481,114541	76,122	0,105183
3,563803	500,319520	76,792	0,113518
3,589823	518,671695	77,462	0,121482
3,615816	538,243448	78,121	0,129977
3,641815	556,594497	78,795	0,137941
3,667836	575,434953	79,472	0,146118
3,693769	594,152776	80,133	0,154241
3,719787	613,236247	80,811	0,162523
3,745820	631,465789	81,506	0,170435
3,771819	642,989901	82,178	0,175437
3,797812	660,366638	82,871	0,182978
3,823735	678,352040	83,551	0,190784
3,849764	696,825722	84,241	0,198801
3,875753	715,117142	84,938	0,206740
3,901812	731,944844	85,604	0,214043
3,927756	745,053058	86,278	0,219732
3,953771	763,161092	86,971	0,227591
3,979716	782,183810	87,627	0,235847
3,981757	782,001548	88,283	0,235768
3,981755	782,062302	88,974	0,235794
3,981796	782,123056	89,632	0,235820
3,981748	781,878915	90,322	0,235714
3,981746	781,634775	90,987	0,235608
3,981776	782,244564	91,682	0,235873
3,981766	781,696654	92,351	0,235635
3,975779	776,696834	93,039	0,233465
3,949766	757,003573	93,727	0,224918
3,923822	737,249559	94,382	0,216345
3,897787	717,312158	95,064	0,207692
3,871775	696,460073	95,741	0,198643
3,845792	676,766813	96,413	0,190096
3,819765	656,768658	97,088	0,181417
3,793804	636,831257	97,789	0,172764
3,767793	617,260630	98,477	0,164270
3,741830	597,201721	99,134	0,155564
3,715787	578,177878	99,828	0,147308
3,689796	558,423864	100,512	0,138735
3,663816	538,486463	101,189	0,130082
3,637837	519,586379	101,848	0,121879
3,611734	499,832364	102,542	0,113306
3,585842	481,357557	103,220	0,105288
3,601826	493,247318	103,901	0,110448
3,627862	512,147402	104,585	0,118651
3,653831	532,328944	105,262	0,127410
3,679769	551,473169	105,949	0,135718
3,705850	570,922289	106,625	0,144159
3,731769	590,921569	107,330	0,152839
3,757798	610,919724	108,004	0,161518
3,783830	630,308090	108,685	0,169933
3,809756	649,817963	109,354	0,178400
3,835763	669,816118	110,036	0,187079
3,861790	689,997660	110,729	0,195838
3,887798	709,202639	111,436	0,204173
3,913796	729,140040	112,132	0,212826
3,939827	749,260828	112,802	0,221558
3,965756	769,319736	113,485	0,230264
3,991773	788,524716	114,176	0,238599
4,017721	807,852328	114,837	0,246987
4,043774	827,911236	115,535	0,255692
4,069794	846,386044	116,201	0,263710
4,095764	865,041988	116,856	0,271807
4,121743	883,516795	117,551	0,279825
4,147723	902,661020	118,253	0,288134
4,173761	922,719929	118,948	0,296839
4,199708	941,193611	119,603	0,304857
4,225718	959,119384	120,288	0,312637
4,251748	978,385117	120,960	0,320998
4,277733	996,799170	121,634	0,328990
4,303673	1015,761134	122,328	0,337219
4,329699	1034,417078	123,007	0,345316
4,355688	1053,074147	123,662	0,353413
4,381688	1073,133056	124,338	0,362119
4,381698	1072,645899	125,020	0,361907
4,381714	1072,401759	125,709	0,361801
4,381699	1072,218372	126,388	0,361722
4,381630	1072,341005	127,083	0,361775
4,381726	1072,218372	127,795	0,361722
4,381673	1072,279126	128,453	0,361748
4,381673	1072,706653	129,125	0,361934
4,373706	1066,243115	129,791	0,359128
4,347675	1046,793995	130,457	0,350687
4,321711	1027,223367	131,167	0,342194
4,295744	1007,346720	131,856	0,333567
4,269777	988,140616	132,542	0,325232
4,243763	967,960199	133,216	0,316474
4,217718	948,632587	133,906	0,308085
4,191690	928,451046	134,592	0,299327
4,165750	908,270629	135,257	0,290568
4,139730	888,272474	135,951	0,281889
4,113724	868,761476	136,655	0,273421
4,087737	849,068215	137,355	0,264875
4,061737	828,094623	138,027	0,255772
4,035784	808,096468	138,698	0,247093
4,009761	787,671911	139,406	0,238229
3,983811	768,709947	140,076	0,229999
3,957782	748,528406	140,767	0,221240
3,931786	728,408743	141,452	0,212508
3,905769	708,836991	142,132	0,204014
3,879743	688,778082	142,786	0,195309
3,853802	667,560349	143,482	0,186100
3,827817	648,355370	144,183	0,177765
3,801779	628,113074	144,844	0,168980
3,775780	608,967724	145,531	0,160671
3,749813	589,152956	146,228	0,152071
3,723815	569,520449	146,927	0,143551
3,697813	550,132083	147,604	0,135136
3,671806	531,109366	148,275	0,126880
3,645816	510,989703	148,958	0,118148
3,619813	491,296443	149,626	0,109602
3,593823	472,700128	150,319	0,101531
3,567808	453,433270	151,002	0,093169
3,541826	434,533185	151,683	0,084966
3,515815	415,205573	152,389	0,076578
3,489892	395,756453	153,079	0,068137
3,463898	378,135576	153,774	0,060490
3,437840	359,356999	154,461	0,052340
3,411835	340,944070	155,160	0,044349
3,385889	323,993736	155,860	0,036992
3,359887	304,606495	156,536	0,028578
3,333885	285,582652	157,218	0,020322
3,307924	267,048216	157,908	0,012278
3,281919	249,061690	158,625	0,004472
3,255934	230,771394	159,292	-0,003466
3,229904	212,845622	159,995	-0,011246
3,203899	194,067045	160,691	-0,019396
3,177952	174,983574	161,387	-0,027678
3,151915	156,509892	162,040	-0,035696
3,125919	139,559557	162,732	-0,043052
3,099910	121,512277	163,432	-0,050885
3,073979	105,843399	164,091	-0,057685
3,047896	94,441919	164,781	-0,062633
3,021917	84,320772	165,470	-0,067026
2,995962	75,358448	166,170	-0,070916
2,969940	65,847089	166,833	-0,075043
2,943954	60,725761	167,512	-0,077266
2,917972	56,517992	168,224	-0,079092
2,891974	49,750684	168,930	-0,082029
2,865987	41,703044	169,612	-0,085522
2,839951	35,727787	170,319	-0,088115
2,813941	28,411443	171,019	-0,091291
2,787923	22,131291	171,689	-0,094016
2,761988	15,424737	172,384	-0,096927
2,735934	8,718183	173,096	-0,099837
2,709997	1,767488	173,783	-0,102854
2,683937	-4,451910	174,453	-0,105553
2,657966	-9,999640	175,144	-0,107961
2,631976	-15,791511	175,843	-0,110475
2,605985	-20,547190	176,548	-0,112539
2,579962	-25,120608	177,228	-0,114523
2,553980	-27,437131	177,926	-0,115529
2,527994	-22,437311	178,630	-0,113359
2,501927	-16,219038	179,336	-0,110660
2,475952	-12,194655	180,001	-0,108914
2,449956	-6,950695	180,676	-0,106638
2,423950	-4,451910	181,379	-0,105553
2,397980	-1,342211	182,047	-0,104204
2,381935	-0,183387	182,477	-0,103701

X-Pos [um]	Y-Pos [um]
0,000000	10,007187

POC
2,677742
2,401703	-0,608664	0,778	-0,101795
2,427709	-1,767488	1,428	-0,102298
2,453729	-3,413468	2,079	-0,103013
2,479737	-5,364343	2,730	-0,103859
2,505735	-8,352535	3,381	-0,105156
2,531746	-10,059269	4,035	-0,105897
2,557706	-13,718003	4,688	-0,107485
2,583742	-19,083471	5,340	-0,109813
2,609736	-9,449480	5,995	-0,105632
2,635730	3,781367	6,649	-0,099890
2,661748	19,266858	7,304	-0,093169
2,687721	37,741665	7,959	-0,085151
2,713688	55,117278	8,616	-0,077610
2,739703	69,567702	9,278	-0,071339
2,765730	84,566037	9,933	-0,064830
2,777762	90,297154	10,583	-0,062342
2,777693	89,626611	11,239	-0,062633
2,777704	89,444349	11,892	-0,062712
2,777706	89,200209	12,547	-0,062818
2,777746	88,956068	13,214	-0,062924
2,777668	89,200209	13,874	-0,062818
2,777729	89,016822	14,532	-0,062898
2,777654	89,016822	15,186	-0,062898
2,755749	73,043050	15,839	-0,069831
2,729734	54,264473	16,492	-0,077980
2,703698	35,851544	17,148	-0,085972
2,677698	17,499370	17,804	-0,093937
2,701725	34,143685	18,450	-0,086713
2,727746	52,984141	19,104	-0,078536
2,753689	71,518577	19,765	-0,070492
2,779658	89,748119	20,426	-0,062581
2,805724	107,734645	21,093	-0,054774
2,831712	122,428085	21,751	-0,048397
2,857703	137,609807	22,404	-0,041809
2,883675	151,999478	23,076	-0,035563
2,909694	164,681290	23,726	-0,030060
2,935695	179,740378	24,382	-0,023524
2,961678	194,922100	25,046	-0,016935
2,987714	213,151642	25,700	-0,009023
3,013697	231,077414	26,361	-0,001244
3,039681	247,051186	27,025	0,005689
3,065708	264,367169	27,686	0,013204
3,091641	283,023113	28,350	0,021301
3,117644	266,744447	29,004	0,014236
3,143685	280,462450	29,664	0,020189
3,169666	292,901246	30,326	0,025588
3,177622	295,401156	30,986	0,026673
3,177654	294,912874	31,658	0,026461
3,177628	294,363839	32,316	0,026223
3,177670	294,181578	32,969	0,026144
3,177661	293,998191	33,640	0,026064
3,177680	293,937437	34,316	0,026038
3,177641	293,511035	34,968	0,025853
3,177629	293,327648	35,652	0,025773
3,151655	275,098106	36,312	0,017861
3,125671	256,257650	36,969	0,009685
3,099657	237,661335	37,644	0,001614
3,073690	219,492548	38,317	-0,006271
3,047720	201,384514	38,972	-0,014130
3,021639	182,117656	39,626	-0,022492
2,995714	163,705852	40,279	-0,030483
2,983686	154,620896	40,914	-0,034426
3,009686	172,424035	41,574	-0,026699
3,035685	192,482944	42,241	-0,017994
3,061727	210,895872	42,915	-0,010002
3,087708	229,918590	43,578	-0,001747
3,113681	248,026624	44,263	0,006112
3,139644	264,488677	44,917	0,013257
3,165669	284,914360	45,574	0,022122
3,191682	303,326163	46,228	0,030112
3,217683	319,605955	46,895	0,037178
3,243709	326,799665	47,563	0,040300
3,269687	339,786371	48,215	0,045936
3,295654	354,053409	48,913	0,052128
3,321599	366,797100	49,581	0,057659
3,347607	379,905314	50,250	0,063348
3,373623	393,379176	50,930	0,069195
3,399606	406,549269	51,585	0,074911
3,425639	413,621472	52,240	0,077980
3,451634	424,718057	52,904	0,082796
3,477619	437,277236	53,574	0,088247
3,503614	452,093309	54,239	0,094677
3,529614	467,702558	54,907	0,101452
3,555598	484,468381	55,564	0,108728
3,577620	499,345208	56,231	0,115185
3,577580	499,040314	56,886	0,115052
3,577598	498,492404	57,553	0,114814
3,577582	497,759982	58,230	0,114497
3,577578	497,699228	58,886	0,114470
3,577588	497,820736	59,542	0,114523
3,577562	497,820736	60,208	0,114523
3,577595	497,638474	60,882	0,114444
3,565616	488,553517	61,555	0,110501
3,539592	470,384730	62,222	0,102616
3,513604	450,752223	62,885	0,094095
3,487581	432,460802	63,570	0,086157
3,461644	414,292015	64,230	0,078271
3,435638	396,183981	64,889	0,070413
3,409640	377,831806	65,584	0,062448
3,383647	359,358124	66,238	0,054430
3,357608	340,640301	66,916	0,046307
3,331627	322,471513	67,606	0,038421
3,305649	304,424233	68,294	0,030589
3,279681	285,584902	68,962	0,022413
3,299637	299,791187	69,636	0,028578
3,325673	318,691271	70,311	0,036781
3,351633	336,433657	70,964	0,044481
3,377616	355,394495	71,657	0,052710
3,403619	373,930057	72,332	0,060754
3,429591	391,489055	72,986	0,068375
3,455609	409,841230	73,644	0,076340
3,481614	429,290350	74,339	0,084781
3,507592	447,581770	74,994	0,092719
3,533617	465,873191	75,674	0,100658
3,559576	484,530260	76,353	0,108755
3,585647	504,284274	77,005	0,117328
3,611624	522,697203	77,693	0,125319
3,637599	541,597287	78,351	0,133522
3,663580	560,254356	79,004	0,141619
3,689618	578,362390	79,699	0,149478
3,715564	595,251971	80,374	0,156808
3,741584	612,445322	81,046	0,164270
3,767630	630,125828	81,706	0,171943
3,793511	648,538756	82,384	0,179935
3,819571	667,074318	83,052	0,187979
3,845591	686,889086	83,704	0,196579
3,871622	705,057874	84,400	0,204464
3,897555	723,227787	85,051	0,212350
3,923607	742,798414	85,745	0,220843
3,949591	761,455483	86,396	0,228940
3,975552	779,746904	87,047	0,236879
3,977533	779,625396	87,700	0,236826
3,977500	778,222431	88,365	0,236217
3,977555	778,588080	89,044	0,236376
3,977527	777,856783	89,708	0,236059
3,977577	777,917537	90,383	0,236085
3,977549	777,734150	91,048	0,236005
3,977567	776,881345	91,704	0,235635
3,971539	772,978471	92,389	0,233941
3,945542	752,432406	93,046	0,225024
3,919570	732,616512	93,720	0,216424
3,893566	712,374217	94,396	0,207639
3,867580	692,315308	95,066	0,198934
3,841554	672,622048	95,762	0,190387
3,815546	652,623893	96,454	0,181708
3,789575	632,137457	97,113	0,172816
3,763583	612,688337	97,765	0,164375
3,737536	593,604866	98,459	0,156093
3,711613	573,362570	99,120	0,147308
3,685579	554,339853	99,772	0,139052
3,659570	534,280944	100,425	0,130347
3,633583	515,015211	101,085	0,121985
3,607632	495,564966	101,742	0,113544
3,581575	476,542249	102,398	0,105288
3,597604	488,858412	103,035	0,110633
3,623553	507,759622	103,698	0,118836
3,649577	527,818530	104,352	0,127542
3,675587	547,267650	105,007	0,135983
3,701592	566,534508	105,662	0,144345
3,727530	586,349276	106,319	0,152944
3,753591	606,470064	106,972	0,161677
3,779612	625,430903	107,624	0,169906
3,805575	645,002655	108,277	0,178400
3,831599	665,549845	108,968	0,187317
3,857628	684,938211	109,644	0,195732
3,883598	704,448085	110,325	0,204199
3,909595	725,360923	110,990	0,213275
3,935605	744,445520	111,667	0,221558
3,961579	764,381795	112,363	0,230210
3,987602	784,563337	113,015	0,238969
4,013611	803,464547	113,720	0,247172
4,039541	822,548018	114,374	0,255455
4,065545	839,680615	115,047	0,262890
4,091563	851,447743	115,746	0,267997
4,117561	866,690218	116,422	0,274612
4,143582	879,310151	117,124	0,280089
4,169499	886,870635	117,800	0,283371
4,195559	902,845532	118,471	0,290304
4,221546	918,453656	119,168	0,297078
4,247523	932,415800	119,822	0,303137
4,273602	950,340447	120,513	0,310917
4,299550	966,376098	121,192	0,317876
4,325534	984,423378	121,845	0,325708
4,351522	1003,141201	122,550	0,333832
4,377493	1018,749325	123,253	0,340606
4,377511	1019,480622	123,955	0,340923
4,377530	1018,932712	124,618	0,340686
4,377540	1018,993466	125,293	0,340712
4,377502	1018,688571	125,976	0,340580
4,377525	1018,993466	126,652	0,340712
4,377555	1018,261044	127,326	0,340394
4,377536	1018,383677	128,022	0,340447
4,369510	1012,957454	128,680	0,338092
4,343539	992,897420	129,361	0,329386
4,317524	973,753195	130,022	0,321078
4,291509	953,694286	130,716	0,312372
4,265514	934,915710	131,385	0,304222
4,239542	914,794922	132,068	0,295490
[...]
2,744702	147,486814	23,103	-0,030721
2,770687	164,253762	23,764	-0,023444
2,796696	179,739253	24,420	-0,016724
2,822669	195,530764	25,073	-0,009870
2,848705	210,894747	25,745	-0,003202
2,874648	224,064840	26,410	0,002514
2,900648	235,710460	27,066	0,007568
2,926668	249,245077	27,722	0,013442
2,952683	259,793752	28,372	0,018020
2,978695	272,962720	29,028	0,023735
3,004699	281,986922	29,681	0,027652
3,030660	294,119699	30,347	0,032917
3,038662	298,509730	31,005	0,034823
3,038618	296,985257	31,666	0,034161
3,038639	296,741116	32,322	0,034055
3,038634	296,863749	32,979	0,034108
3,038669	296,375468	33,666	0,033896
3,038660	296,619609	34,337	0,034002
3,038641	296,680363	35,003	0,034029
3,038638	296,680363	35,670	0,034029
3,012654	277,352751	36,326	0,025641
2,986696	258,451541	36,996	0,017438
2,960674	240,466140	37,672	0,009632
2,934658	222,053211	38,327	0,001641
2,908717	203,701037	38,982	-0,006324
2,882713	184,983214	39,658	-0,014448
2,856664	166,631039	40,336	-0,022413
2,844654	157,363821	40,981	-0,026435
2,870689	176,873695	41,652	-0,017967
2,896726	195,591518	42,322	-0,009844
2,922694	214,187833	42,977	-0,001773
2,948630	232,051726	43,631	0,005980
2,974718	250,648041	44,292	0,014051
3,000619	270,097161	44,959	0,022492
3,026690	288,144441	45,637	0,030324
3,052657	305,703440	46,291	0,037945
3,078663	323,202810	46,981	0,045540
3,104693	329,360329	47,648	0,048212
3,130679	340,152020	48,336	0,052896
3,156680	354,601319	48,991	0,059167
3,182637	364,722467	49,677	0,063559
3,208629	373,928931	50,335	0,067555
3,234688	386,610743	50,987	0,073059
3,260633	399,048414	51,650	0,078457
3,286687	411,182316	52,332	0,083723
3,312608	422,583795	52,991	0,088671
3,338647	432,826451	53,667	0,093116
3,364579	447,276876	54,342	0,099388
3,390627	461,542789	54,995	0,105579
3,416655	478,798018	55,684	0,113068
3,438617	493,612966	56,354	0,119498
3,438619	493,735599	57,026	0,119551
3,438550	493,369951	57,679	0,119392
3,438585	493,247318	58,362	0,119339
3,438620	493,247318	59,031	0,119339
3,438586	493,247318	59,718	0,119339
3,438604	493,003177	60,388	0,119233
3,438568	492,942423	61,042	0,119207
3,426637	483,858592	61,728	0,115264
3,400573	464,835874	62,402	0,107008
3,374610	445,934665	63,058	0,098805
3,348612	427,216842	63,748	0,090682
3,322628	408,682406	64,408	0,082638
3,296630	390,818512	65,061	0,074885
3,270632	372,343705	65,745	0,066867
3,244626	354,114163	66,421	0,058955
3,218634	335,640481	67,090	0,050938
3,192641	317,227553	67,757	0,042946
3,166644	298,570484	68,424	0,034849
3,140645	280,644711	69,098	0,027069
3,160654	295,034382	69,751	0,033314
3,186646	313,995221	70,411	0,041543
3,212641	331,555345	71,063	0,049165
3,238633	350,089781	71,749	0,057208
3,264638	368,320448	72,410	0,065121
3,290598	387,220532	73,092	0,073323
3,316639	405,328566	73,760	0,081182
3,342638	423,864127	74,421	0,089227
3,368603	442,581950	75,082	0,097350
3,394608	460,872246	75,761	0,105288
3,420559	479,956842	76,412	0,113571
3,446565	499,283329	77,065	0,121958
3,472583	517,818890	77,741	0,130003
3,498548	537,390643	78,428	0,138497
3,524587	555,925079	79,095	0,146541
3,550584	575,008551	79,796	0,154823
3,576588	592,872444	80,466	0,162576
3,602552	610,919724	81,132	0,170409
3,628540	628,662109	81,818	0,178109
3,654524	647,319178	82,506	0,186206
3,680445	666,829052	83,187	0,194673
3,706507	685,120473	83,869	0,202612
3,732560	705,911803	84,541	0,211635
3,758523	725,056029	85,221	0,219944
3,784583	744,565902	85,872	0,228411
3,810489	761,942639	86,562	0,235953
3,836555	781,331005	87,249	0,244367
3,838514	781,331005	87,920	0,244367
3,838480	780,904603	88,591	0,244182
3,838502	779,867287	89,296	0,243732
3,838552	780,599708	89,980	0,244050
3,838483	779,867287	90,660	0,243732
3,838493	779,989919	91,343	0,243785
3,838496	779,806533	92,020	0,243706
3,832522	775,234240	92,676	0,241721
3,806494	754,991944	93,329	0,232936
3,780566	734,444754	94,003	0,224019
3,754500	714,446600	94,667	0,215339
3,728513	694,936726	95,379	0,206872
3,702549	674,877817	96,073	0,198167
3,676547	654,635522	96,732	0,189381
3,650529	634,515859	97,430	0,180649
3,624489	615,492016	98,138	0,172393
3,598547	594,518424	98,828	0,163291
3,572555	575,313445	99,501	0,154956
3,546594	556,168095	100,183	0,146646
3,520534	536,536713	100,874	0,138126
3,494580	517,513996	101,589	0,129871
3,468539	497,942243	102,261	0,121376
3,442574	478,675385	102,964	0,113015
3,458573	490,504392	103,650	0,118148
3,484548	509,892758	104,318	0,126563
3,510553	529,890913	104,994	0,135242
3,536613	548,974384	105,681	0,143524
3,562563	568,789153	106,377	0,152124
3,588581	588,665800	107,031	0,160750
3,614541	607,810025	107,739	0,169059
3,640644	627,808180	108,401	0,177738
3,666576	647,563319	109,076	0,186312
3,692517	667,317333	109,759	0,194885
3,718556	686,522312	110,431	0,203220
3,744543	707,192135	111,085	0,212191
3,770555	726,823517	111,766	0,220711
3,796526	746,273762	112,459	0,229152
3,822587	766,211163	113,138	0,237805
3,848537	785,842544	113,839	0,246325
3,874518	805,840699	114,534	0,255004
3,900526	824,254752	115,233	0,262996
3,926509	838,764806	115,897	0,269293
3,952553	848,520305	116,605	0,273527
3,978546	860,957976	117,292	0,278925
4,004546	860,957976	117,972	0,278925
4,030513	874,371085	118,632	0,284747
4,056504	888,821510	119,291	0,291018
4,082503	903,210055	119,990	0,297263
4,108500	919,916250	120,678	0,304513
4,134515	936,134163	121,369	0,311552
4,160490	954,547091	122,043	0,319543
4,186470	968,814129	122,718	0,325735
4,212465	985,641831	123,402	0,333038
4,238514	998,323643	124,086	0,338542
4,238469	995,335451	124,783	0,337245
4,238436	994,360014	125,457	0,336822
4,238464	993,689471	126,143	0,336531
4,238461	993,263069	126,828	0,336346
4,238473	993,263069	127,503	0,336346
4,238481	993,263069	128,190	0,336346
4,238486	993,567963	128,881	0,336478
4,230415	986,922163	129,552	0,333594
4,204502	968,204340	130,240	0,325470
4,178526	948,632587	130,952	0,316976
4,152524	928,634433	131,651	0,308297
4,126528	909,062680	132,335	0,299803
4,100511	889,736193	133,022	0,291415
4,074509	870,713476	133,722	0,283159
4,048497	851,020215	134,429	0,274612
4,022539	832,119006	135,098	0,266409
3,996555	811,815956	135,800	0,257598
3,970536	791,940434	136,479	0,248972
3,944561	772,673576	137,147	0,240610
3,918557	753,590105	137,812	0,232328
3,892516	734,079106	138,488	0,223860
3,866571	713,898690	139,192	0,215102
3,840532	695,118988	139,848	0,206951
3,814602	676,158149	140,532	0,198722
3,788532	656,037361	141,199	0,189990
3,762563	636,893136	141,888	0,181681
3,736567	616,224438	142,562	0,172711
3,710552	597,140967	143,240	0,164429
3,684526	576,716410	143,897	0,155564
3,658518	557,449552	144,564	0,147203
3,632583	537,207256	145,253	0,138417
3,606576	517,574750	145,912	0,129897
3,580560	496,783419	146,607	0,120874
3,554566	476,603003	147,313	0,112115
3,528571	457,092004	148,013	0,103647
3,502608	436,972341	148,690	0,094916
3,476574	417,766237	149,393	0,086580
3,450595	398,256363	150,094	0,078113
3,424661	377,892560	150,771	0,069275
3,398593	358,930597	151,458	0,061045
3,372638	339,055075	152,139	0,052419
3,346600	320,337252	152,842	0,044296
3,320662	301,131147	153,519	0,035960
3,294673	282,474078	154,220	0,027863
3,268609	263,207220	154,916	0,019501
3,242643	244,062995	155,574	0,011193
3,216675	224,247102	156,261	0,002593
3,190692	206,261701	156,943	-0,005213
3,164622	188,335928	157,625	-0,012993
3,138675	172,179895	158,308	-0,020004
3,112659	157,363821	158,971	-0,026435
3,086635	146,023095	159,671	-0,031356
3,060690	134,134460	160,327	-0,036516
3,034657	123,220136	161,019	-0,041253
3,008694	115,659652	161,705	-0,044534
2,982671	106,210172	162,365	-0,048635
2,956735	97,551618	163,069	-0,052393
2,930678	90,602049	163,752	-0,055409
2,904728	83,895494	164,444	-0,058320
2,878673	76,700659	165,112	-0,061442
2,852688	70,908788	165,809	-0,063956
2,826726	66,518757	166,516	-0,065861
2,800758	62,371742	167,170	-0,067661
2,774680	55,604434	167,853	-0,070598
2,748693	49,081266	168,560	-0,073429
2,722655	41,642290	169,238	-0,076658
2,696690	35,545525	169,908	-0,079304
2,670688	27,619393	170,609	-0,082744
2,644757	21,827522	171,310	-0,085257
2,618693	14,998335	172,021	-0,088221
2,592706	8,596675	172,707	-0,091000
2,566709	2,682172	173,379	-0,093566
2,540706	-2,499910	174,050	-0,095815
2,514728	-8,475167	174,716	-0,098409
2,488740	-10,060394	175,431	-0,099097
2,462684	-8,596675	176,115	-0,098461
2,436749	-7,926132	176,785	-0,098170
2,410669	-6,340906	177,469	-0,097482
2,384760	-5,670363	178,169	-0,097191
2,358691	-4,085136	178,852	-0,096503
2,332683	-3,596855	179,531	-0,096292
2,306674	-2,926312	180,233	-0,096000
2,280726	-2,621418	180,927	-0,095868
2,254770	-1,768613	181,643	-0,095498
2,238698	-0,914684	182,083	-0,095127