File: Nanoindentation Datenauswertung/data/Drift-2, pressure off, chuck not activated
Drift test with MEMS displacement of 0,5 um, displacement data in [nm] and time increments of 30s
17.08.2022 16:24:45
eoh
0,046725	0,000000	22,440000	55,530000
127,232310	4,500000	22,430000	55,515000
127,034895	9,000000	22,430000	55,490000
127,089797	13,500000	22,430000	55,420000
126,219535	18,000000	22,430000	55,435000
126,892382	22,500000	22,430000	55,435000
128,221722	27,000000	22,430000	55,395000
128,024307	31,500000	22,430000	55,405000
128,783596	36,000000	22,430000	55,380000
127,620131	40,500000	22,430000	55,355000
127,951882	45,000000	22,430000	55,310000
128,997365	49,500000	22,430000	55,340000
129,068621	54,000000	22,430000	55,310000
129,733291	58,500000	22,420000	55,310000
129,463451	63,000000	22,420000	55,300000
130,366421	67,500000	22,430000	55,300000
130,001962	72,000000	22,420000	55,285000
130,341890	76,500000	22,430000	55,270000
129,914352	81,000000	22,430000	55,230000
131,901353	85,500000	22,420000	55,245000
132,391971	90,000000	22,420000	55,220000
132,874411	94,500000	22,420000	55,230000
132,637279	99,000000	22,420000	55,205000
132,019335	103,500000	22,420000	55,190000
132,676996	108,000000	22,420000	55,165000
133,025101	112,500000	22,420000	55,190000
133,096357	117,000000	22,420000	55,165000
133,761027	121,500000	22,430000	55,150000
133,547258	126,000000	22,430000	55,150000
133,989982	130,500000	22,420000	55,125000
134,346264	135,000000	22,420000	55,125000
133,807753	139,500000	22,410000	55,110000
135,264419	144,000000	22,420000	55,095000
134,394157	148,500000	22,410000	55,110000
135,398755	153,000000	22,420000	55,110000
136,348451	157,500000	22,420000	55,135000
135,841479	162,000000	22,420000	55,135000
136,648662	166,500000	22,420000	55,150000
136,688378	171,000000	22,410000	55,110000
136,973404	175,500000	22,420000	55,135000
137,353048	180,000000	22,430000	55,150000
137,724516	184,500000	22,420000	55,135000
137,061014	189,000000	22,420000	55,150000
137,273615	193,500000	22,420000	55,150000
137,202359	198,000000	22,420000	55,190000
137,510747	202,500000	22,420000	55,190000
137,598357	207,000000	22,410000	55,205000
138,738459	211,500000	22,420000	55,220000
138,627486	216,000000	22,420000	55,220000
139,497748	220,500000	22,420000	55,260000
138,778175	225,000000	22,420000	55,270000
138,667202	229,500000	22,400000	55,265000
139,711517	234,000000	22,420000	55,285000
140,273391	238,500000	22,420000	55,285000
140,502346	243,000000	22,410000	55,285000
140,368010	247,500000	22,420000	55,285000
140,082984	252,000000	22,430000	55,325000
140,154241	256,500000	22,420000	55,325000
141,167016	261,000000	22,410000	55,325000
141,412324	265,500000	22,420000	55,355000
141,190378	270,000000	22,420000	55,365000
140,074807	274,500000	22,420000	55,405000
141,040857	279,000000	22,420000	55,380000
140,676398	283,500000	22,420000	55,435000
140,589956	288,000000	22,420000	55,405000
142,370197	292,500000	22,420000	55,450000
140,368010	297,000000	22,430000	55,460000
141,088750	301,500000	22,430000	55,460000
141,341068	306,000000	22,420000	55,460000
141,554837	310,500000	22,420000	55,475000
140,795548	315,000000	22,420000	55,505000
139,227908	319,500000	22,420000	55,515000
140,114524	324,000000	22,430000	55,545000
140,359833	328,500000	22,420000	55,545000
139,814313	333,000000	22,420000	55,570000
140,082984	337,500000	22,420000	55,555000
140,091161	342,000000	22,420000	55,585000
139,686986	346,500000	22,420000	55,610000
140,273391	351,000000	22,420000	55,665000
141,095759	355,500000	22,420000	55,650000
140,827088	360,000000	22,430000	55,650000
140,273391	364,500000	22,430000	55,680000
141,095759	369,000000	22,430000	55,690000
140,462629	373,500000	22,420000	55,705000
141,531474	378,000000	22,420000	55,720000
141,269812	382,500000	22,420000	55,735000
140,210311	387,000000	22,430000	55,750000
139,679977	391,500000	22,420000	55,775000
139,441677	396,000000	22,420000	55,785000
139,292156	400,500000	22,420000	55,785000
138,927697	405,000000	22,420000	55,815000
138,998953	409,500000	22,420000	55,815000
139,505925	414,000000	22,420000	55,825000
138,674211	418,500000	22,420000	55,840000
139,315518	423,000000	22,420000	55,870000
138,571415	427,500000	22,430000	55,885000
140,137887	432,000000	22,420000	55,870000
140,391373	436,500000	22,420000	55,925000
140,137887	441,000000	22,420000	55,935000
138,761822	445,500000	22,430000	55,925000
138,738459	450,000000	22,430000	55,935000
138,152054	454,500000	22,420000	55,965000
138,097152	459,000000	22,430000	55,965000
138,587769	463,500000	22,430000	55,975000
139,410138	468,000000	22,430000	55,990000
138,365823	472,500000	22,430000	55,990000
138,382177	477,000000	22,420000	55,990000
138,160231	481,500000	22,430000	56,005000
138,105329	486,000000	22,420000	56,045000
137,764233	490,500000	22,420000	56,070000
137,724516	495,000000	22,420000	56,030000
136,839068	499,500000	22,420000	56,060000
137,258429	504,000000	22,420000	56,085000
137,669613	508,500000	22,430000	56,085000
137,510747	513,000000	22,430000	56,070000
137,250252	517,500000	22,420000	56,125000
137,036483	522,000000	22,420000	56,140000
137,455844	526,500000	22,430000	56,140000
137,124094	531,000000	22,420000	56,110000
136,696555	535,500000	22,420000	56,110000
136,008523	540,000000	22,430000	56,180000
135,698966	544,500000	22,430000	56,180000
135,098544	549,000000	22,420000	56,195000
135,406932	553,500000	22,430000	56,180000
134,734085	558,000000	22,430000	56,195000
134,836881	562,500000	22,430000	56,210000
135,074013	567,000000	22,420000	56,210000
135,485197	571,500000	22,420000	56,210000
134,543679	576,000000	488,930000	0,000000
135,176809	580,500000	488,930000	0,000000
135,105553	585,000000	1,230000	163,915000
134,132495	589,500000	1,230000	163,915000
134,512139	594,000000	1,230000	163,915000
133,522727	598,500000	1,230000	163,915000
133,230693	603,000000	1,230000	163,915000
133,071826	607,500000	1,230000	163,915000
133,341666	612,000000	1,230000	163,915000
132,945668	616,500000	1,230000	163,915000
133,056641	621,000000	1,230000	163,915000
133,199153	625,500000	1,230000	163,915000
131,964433	630,000000	1,230000	163,915000
133,262233	634,500000	5,550000	0,115000
132,106945	639,000000	5,560000	0,115000
132,257635	643,500000	363,710000	156,715000
132,676996	648,000000	5,350000	8,745000
131,608151	652,500000	5,350000	8,745000
131,584788	657,000000	5,350000	8,745000
131,703938	661,500000	5,350000	8,745000
131,949247	666,000000	5,350000	8,745000
131,758840	670,500000	5,350000	8,745000
130,580190	675,000000	5,350000	8,745000
130,666632	679,500000	5,350000	8,745000
130,746066	684,000000	5,350000	8,745000
131,101179	688,500000	5,350000	8,745000
131,481992	693,000000	2,460000	288,240000
132,043866	697,500000	0,000000	4,020000
131,528717	702,000000	315,210000	19,745000
131,624505	706,500000	315,210000	19,745000
131,410736	711,000000	315,210000	19,745000
130,341890	715,500000	315,210000	19,745000
131,125710	720,000000	315,210000	19,745000
130,674809	724,500000	315,210000	19,745000
130,445855	729,000000	315,210000	19,745000
130,199378	733,500000	315,210000	19,745000
130,524120	738,000000	315,210000	19,745000
129,867627	742,500000	315,210000	19,745000
129,060444	747,000000	0,000000	0,000000
129,171417	751,500000	327,830000	181,855000
129,914352	756,000000	0,000000	227,955000
128,632906	760,500000	19,700000	1,230000
129,028904	765,000000	19,700000	1,230000
129,899166	769,500000	19,700000	1,230000
129,068621	774,000000	19,700000	1,230000
129,139877	778,500000	19,700000	1,230000
128,047669	783,000000	19,700000	1,230000
127,477618	787,500000	19,700000	1,230000
128,332695	792,000000	19,700000	1,230000
127,905157	796,500000	19,700000	1,230000
126,693799	801,000000	19,700000	1,230000
126,947284	805,500000	1,220000	0,725000
127,366645	810,000000	2,130000	9,850000
127,540698	814,500000	2,130000	9,850000
126,797763	819,000000	576,480000	213,720000
125,791997	823,500000	576,480000	213,720000
126,473021	828,000000	576,480000	213,720000
125,823537	832,500000	576,480000	213,720000
125,737094	837,000000	576,480000	213,720000
126,022120	841,500000	576,480000	213,720000
125,072424	846,000000	576,480000	213,720000
126,196172	850,500000	576,480000	213,720000
126,259252	855,000000	576,480000	213,720000
125,894793	859,500000	576,480000	213,720000
125,674015	864,000000	75,470000	20,560000
124,976637	868,500000	0,000000	227,955000
125,783820	873,000000	576,480000	213,720000
125,420529	877,500000	576,480000	213,720000
125,855076	882,000000	576,480000	213,720000
124,827116	886,500000	576,480000	213,720000
124,668249	891,000000	576,480000	213,720000
124,882018	895,500000	576,480000	213,720000
124,059650	900,000000	576,480000	213,720000
123,925314	904,500000	576,480000	213,720000
123,814341	909,000000	576,480000	213,720000
122,279409	913,500000	576,480000	213,720000
121,709358	918,000000	576,480000	213,720000
123,766447	922,500000	5,550000	0,115000
124,351684	927,000000	5,550000	0,115000
122,856469	931,500000	2,640000	2,775000
122,634523	936,000000	2,640000	2,775000
121,962844	940,500000	2,640000	2,775000
122,730310	945,000000	2,640000	2,775000
122,793389	949,500000	2,640000	2,775000
121,906773	954,000000	2,640000	2,775000
120,870636	958,500000	2,640000	2,775000
121,638102	963,000000	2,640000	2,775000
121,250280	966,500000	2,640000	2,775000