File: Nanoindentation Datenauswertung/data/EM-SA-50-10-50-0,5um
Quasi static measurement routine
Tip parameters (shape,radius, material...)
17.08.2022

Piezo position[nm]	MEMS displ.[nm]	Time[ms]	Cap [pf]	Temp [°C]	Rh [%]
eoh
2,184118	-0,127327	0,214	-0,106926	22,400000	55,130000
2,190562	-0,427538	0,867	-0,107051	22,410000	55,135000
2,197151	-0,269840	1,518	-0,106985	22,410000	55,135000
2,203534	-0,079433	2,174	-0,106906	22,410000	55,135000
2,210027	-0,071256	2,827	-0,106902	22,400000	55,145000
2,216562	-0,230123	3,481	-0,106969	22,400000	55,145000
2,223057	-0,182229	4,136	-0,106949	22,400000	55,145000
2,229547	-0,253486	4,790	-0,106979	22,400000	55,145000
2,236089	-0,332919	5,443	-0,107012	22,400000	55,145000
2,242589	-0,135504	6,096	-0,106929	22,400000	55,145000
2,249080	-0,316565	6,748	-0,107005	22,410000	55,135000
2,255594	0,038549	7,401	-0,106856	22,410000	55,135000
2,262081	-0,475432	8,055	-0,107071	22,410000	55,135000
2,268591	-0,475432	8,708	-0,107071	22,410000	55,135000
2,275079	-0,395998	9,364	-0,107038	22,410000	55,135000
2,281473	-0,206760	10,017	-0,106959	22,410000	55,135000
2,288052	-0,364459	10,672	-0,107025	22,410000	55,135000
2,294553	-0,246477	11,325	-0,106976	22,410000	55,135000
2,301041	-0,110973	11,980	-0,106919	22,410000	55,135000
2,307581	-0,617944	12,634	-0,107131	22,410000	55,135000
2,314104	-0,087610	13,286	-0,106909	22,400000	55,105000
2,320638	-0,601591	13,941	-0,107124	22,400000	55,105000
2,327014	-0,301379	14,596	-0,106999	22,400000	55,105000
2,333578	-0,174052	15,250	-0,106945	22,400000	55,105000
2,340047	-0,427538	15,902	-0,107051	22,400000	55,105000
2,346565	-0,387821	16,557	-0,107035	22,400000	55,105000
2,353026	-0,301379	17,212	-0,106999	22,400000	55,130000
2,359611	-0,380813	17,867	-0,107032	22,400000	55,130000
2,366072	-0,767466	18,521	-0,107193	22,400000	55,130000
2,372592	-0,238300	19,175	-0,106972	22,400000	55,145000
2,378993	-0,515148	19,827	-0,107088	22,400000	55,145000
2,385588	-0,633130	20,479	-0,107137	22,400000	55,145000
2,392077	-0,190406	21,137	-0,106952	22,400000	55,145000
2,398590	-0,182229	21,789	-0,106949	22,400000	55,145000
2,405038	-0,452069	22,447	-0,107062	22,400000	55,145000
2,411569	-0,554865	23,104	-0,107104	22,400000	55,130000
2,418145	-0,095787	23,758	-0,106913	22,400000	55,130000
2,424564	-0,727749	24,410	-0,107177	22,400000	55,130000
2,431045	-0,570051	25,066	-0,107111	22,410000	55,150000
2,437528	-0,419361	25,726	-0,107048	22,410000	55,150000
2,443997	-0,380813	26,380	-0,107032	22,410000	55,150000
2,450574	-0,404175	27,034	-0,107042	22,410000	55,135000
2,457059	-0,515148	27,687	-0,107088	22,410000	55,135000
2,463546	-0,356282	28,340	-0,107021	22,410000	55,135000
2,470039	-0,578228	28,993	-0,107114	22,410000	55,125000
2,476592	-0,490618	29,644	-0,107078	22,410000	55,125000
2,483107	-0,554865	30,298	-0,107104	22,410000	55,125000
2,489498	-0,609767	30,954	-0,107127	22,400000	55,120000
2,496036	-0,578228	31,609	-0,107114	22,400000	55,120000
2,502507	-0,561874	32,261	-0,107107	22,400000	55,120000
2,509083	-0,712564	32,913	-0,107170	22,400000	55,120000
2,515565	-0,419361	33,566	-0,107048	22,400000	55,120000
2,522076	-0,744103	34,220	-0,107184	22,400000	55,120000
2,528592	-0,974226	34,874	-0,107280	22,410000	55,125000
2,535013	-0,871430	35,529	-0,107237	22,410000	55,125000
2,541531	-0,997589	36,184	-0,107290	22,410000	55,125000
2,548057	-1,456667	36,859	-0,107481	22,410000	55,125000
2,554579	-1,662259	37,515	-0,107567	22,410000	55,125000
2,561061	-10,889373	38,190	-0,111424	22,410000	55,125000
2,567534	-4,574424	38,844	-0,108785	22,410000	55,110000
2,574062	1,748701	39,500	-0,106142	22,410000	55,110000
2,580547	7,414165	40,152	-0,103773	22,410000	55,110000
2,587031	13,997785	40,806	-0,101021	22,400000	55,130000
2,593600	19,877019	41,460	-0,098564	22,400000	55,130000
2,600045	25,867225	42,117	-0,096060	22,400000	55,130000
2,606548	32,078209	42,771	-0,093464	22,400000	55,130000
2,613034	37,665408	43,423	-0,091128	22,400000	55,130000
2,619551	44,217488	44,075	-0,088390	22,400000	55,130000
2,626061	49,977572	44,736	-0,085982	22,400000	55,105000
2,632562	55,967778	45,391	-0,083478	22,400000	55,105000
2,639010	62,211470	46,047	-0,080868	22,400000	55,105000
2,645546	68,233216	46,698	-0,078351	22,400000	55,130000
2,652006	74,563350	47,353	-0,075705	22,400000	55,130000
2,658603	80,711255	48,006	-0,073135	22,400000	55,130000
2,665043	87,390662	48,662	-0,070343	22,400000	55,130000
2,671539	93,158923	49,332	-0,067932	22,400000	55,130000
2,678084	98,895643	49,989	-0,065534	22,400000	55,130000
2,684087	104,885850	50,645	-0,063030	22,400000	55,130000
2,684090	104,482842	51,296	-0,063199	22,400000	55,090000
2,684024	104,688435	51,949	-0,063113	22,400000	55,090000
2,684059	104,680258	52,601	-0,063116	22,400000	55,090000
2,684005	104,269073	53,254	-0,063288	22,400000	55,090000
2,684035	104,443126	53,906	-0,063215	22,400000	55,090000
2,683999	104,213003	54,576	-0,063312	22,400000	55,090000
2,683954	104,070490	55,230	-0,063371	22,390000	55,090000
2,683999	104,269073	55,886	-0,063288	22,390000	55,090000
2,684020	104,070490	56,538	-0,063371	22,390000	55,090000
2,684064	104,315799	57,189	-0,063269	22,400000	55,145000
2,684055	104,023765	57,840	-0,063391	22,400000	55,145000
2,684053	103,999234	58,504	-0,063401	22,400000	55,145000
2,684048	103,785465	59,155	-0,063490	22,400000	55,145000
2,684046	104,340330	59,806	-0,063258	22,400000	55,145000
2,684038	104,181463	60,459	-0,063325	22,400000	55,145000
2,679544	99,528774	61,140	-0,065270	22,410000	55,110000
2,673037	93,554921	61,797	-0,067767	22,410000	55,110000
2,666552	87,422202	62,448	-0,070330	22,410000	55,110000
2,660026	81,100245	63,103	-0,072973	22,410000	55,110000
2,653569	74,674323	63,764	-0,075659	22,410000	55,110000
2,647023	68,153783	64,414	-0,078384	22,410000	55,110000
2,640564	62,266373	65,067	-0,080845	22,410000	55,125000
2,634038	56,118468	65,729	-0,083415	22,410000	55,125000
2,627552	49,843236	66,383	-0,086038	22,410000	55,125000
2,621070	43,632252	67,045	-0,088634	22,410000	55,135000
2,614499	37,348843	67,699	-0,091261	22,410000	55,135000
2,607998	31,587592	68,355	-0,093669	22,410000	55,135000
2,601526	24,783194	69,010	-0,096513	22,400000	55,120000
2,595068	19,006757	69,665	-0,098928	22,400000	55,120000
2,588551	12,968657	70,318	-0,101452	22,400000	55,120000
2,582024	6,100011	70,970	-0,104323	22,400000	55,120000
2,575580	0,276848	71,622	-0,106757	22,400000	55,120000
2,569053	-6,228506	72,275	-0,109476	22,400000	55,120000
2,562610	-12,471030	72,935	-0,112085	22,400000	55,120000
2,556065	-18,635289	73,588	-0,114662	22,400000	55,120000
2,549540	-24,333461	74,246	-0,117044	22,400000	55,120000
2,543076	-30,473189	74,906	-0,119610	22,400000	55,120000
2,536526	-36,779960	75,565	-0,122247	22,400000	55,120000
2,530094	-42,722273	76,221	-0,124730	22,400000	55,120000
2,523568	-48,918072	76,872	-0,127320	22,400000	55,130000
2,517038	-55,067145	77,525	-0,129891	22,400000	55,130000
2,510532	-60,953387	78,180	-0,132351	22,400000	55,130000
2,504070	-67,838386	78,851	-0,135229	22,400000	55,105000
2,497599	-73,211816	79,505	-0,137475	22,400000	55,105000
2,491021	-80,047753	80,161	-0,140333	22,400000	55,105000
2,484546	-85,706209	80,816	-0,142698	22,410000	55,125000
2,478046	-91,782857	81,472	-0,145238	22,410000	55,125000
2,471543	-98,477450	82,130	-0,148036	22,410000	55,125000
2,465031	-104,451303	82,788	-0,150533	22,400000	55,105000
2,458615	-110,474217	83,443	-0,153051	22,400000	55,105000
2,452034	-116,890793	84,108	-0,155733	22,400000	55,105000
2,445584	-122,849460	84,760	-0,158224	22,400000	55,105000
2,439084	-128,816303	85,414	-0,160718	22,400000	55,105000
2,432598	-134,924492	86,068	-0,163271	22,400000	55,105000
2,426063	-141,207900	86,720	-0,165897	22,400000	55,120000
2,419577	-146,185332	87,374	-0,167978	22,400000	55,120000
2,413083	-152,808669	88,046	-0,170747	22,400000	55,120000
2,406585	-159,707685	88,702	-0,173630	22,400000	55,120000
2,400052	-165,246991	89,366	-0,175946	22,400000	55,120000
2,393555	-172,021017	90,019	-0,178777	22,400000	55,120000
2,387020	-177,489066	90,673	-0,181063	22,400000	55,120000
2,380588	-184,190668	91,326	-0,183864	22,400000	55,130000
2,374034	-190,568696	91,980	-0,186530	22,400000	55,130000
2,367541	-195,957312	92,654	-0,188783	22,400000	55,130000
2,361030	-201,821359	93,314	-0,191234	22,400000	55,105000
2,354511	-208,119954	93,973	-0,193867	22,400000	55,105000
2,348101	-214,315752	94,628	-0,196457	22,400000	55,105000
2,341576	-220,622524	95,280	-0,199093	22,400000	55,105000
2,335050	-226,509934	95,933	-0,201554	22,400000	55,105000
2,328504	-232,095965	96,609	-0,203889	22,400000	55,105000
2,322021	-238,822097	97,277	-0,206700	22,400000	55,120000
2,315615	-244,899914	97,934	-0,209241	22,400000	55,120000
2,309097	-250,786156	98,586	-0,211701	22,400000	55,120000
2,302540	-256,696929	99,247	-0,214172	22,400000	55,120000
2,295996	-262,647419	99,910	-0,216659	22,400000	55,120000
2,289567	-268,234618	100,563	-0,218995	22,400000	55,120000
2,283072	-274,169922	101,217	-0,221476	22,410000	55,135000
2,276537	-278,434790	101,885	-0,223258	22,410000	55,135000
2,270071	-0,490618	102,538	-0,107078	22,410000	55,135000
2,263570	-0,230123	103,194	-0,106969	22,410000	55,110000
2,257058	-0,150690	103,853	-0,106936	22,410000	55,110000
2,250559	-0,546688	104,513	-0,107101	22,410000	55,110000
2,244025	-0,206760	105,170	-0,106959	22,410000	55,110000
2,237539	-0,301379	105,836	-0,106999	22,410000	55,110000
2,231022	-0,483609	106,490	-0,107075	22,410000	55,110000
2,224557	-0,459078	107,140	-0,107064	22,410000	55,125000
2,218033	-0,213769	107,794	-0,106962	22,410000	55,125000
2,211531	-0,554865	108,447	-0,107104	22,410000	55,125000
2,205069	-0,230123	109,118	-0,106969	22,410000	55,135000
2,198581	-0,174052	109,782	-0,106945	22,410000	55,135000
2,192049	-0,372636	110,437	-0,107028	22,410000	55,135000
2,185533	-0,102796	111,091	-0,106916	22,410000	55,135000
2,184076	-0,308388	111,241	-0,107001	22,410000	55,135000