File: Nanoindentation Datenauswertung/data/partial unload on sapphire
Quasi static measurement routine
Tip parameters (shape,radius, material...)
27.06.2022

Piezo position[nm]	MEMS displ.[nm]	Time[ms]	Cap [pf]
eoh
4,101637	0,000000	0,00	-0,092852
4,115509	0,549035	0,84	-0,092613
4,129515	0,426402	1,58	-0,092667
4,143485	0,121508	2,40	-0,092799
4,157494	0,670543	3,12	-0,092561
4,171500	-0,366773	3,86	-0,093011
4,185493	-1,037316	4,62	-0,093302
4,199479	1,585226	5,36	-0,092164
4,213453	15,608124	6,23	-0,086078
4,227506	29,691775	7,04	-0,079965
4,241516	43,349024	7,81	-0,074038
4,255476	56,092715	8,57	-0,068507
4,268511	71,761593	9,34	-0,061707
4,268454	71,091050	10,12	-0,061998
4,268491	71,578206	10,89	-0,061787
4,268454	70,481261	11,64	-0,062263
4,268469	70,907663	12,44	-0,062078
4,268434	70,846909	13,31	-0,062104
4,268414	71,273311	14,08	-0,061919
4,268416	71,091050	14,81	-0,061998
4,255461	58,835640	15,66	-0,067317
4,241471	44,629356	16,48	-0,073482
4,227489	31,032861	17,27	-0,079383
4,238470	39,996310	18,01	-0,075493
4,252461	53,958453	18,74	-0,069434
4,266458	66,761773	19,48	-0,063877
4,280454	82,125756	20,23	-0,057209
4,294499	96,392794	21,01	-0,051017
4,308477	110,477571	21,80	-0,044904
4,322498	123,464277	22,56	-0,039268
4,336479	138,096963	23,36	-0,032917
4,350444	153,156052	24,16	-0,026382
4,364493	165,472215	24,93	-0,021037
4,378464	181,202972	25,71	-0,014209
4,392449	193,945538	26,51	-0,008679
4,406444	209,431029	27,29	-0,001958
4,420448	221,930579	28,06	0,003466
4,434452	236,379878	28,84	0,009737
4,435477	238,758281	29,61	0,010770
4,435469	238,514140	30,36	0,010664
4,435450	239,063175	31,12	0,010902
4,435409	238,392632	31,94	0,010611
4,435454	237,538702	32,80	0,010240
4,435442	238,879788	33,67	0,010822
4,435469	238,819034	34,39	0,010796
4,424436	229,369555	35,27	0,006695
4,410400	214,674989	36,12	0,000317
4,396456	200,712846	36,95	-0,005742
4,382486	186,629194	37,70	-0,011854
4,368466	171,386719	38,48	-0,018470
4,354429	157,485329	39,24	-0,024503
4,361422	162,667411	39,97	-0,022254
4,375485	176,752187	40,73	-0,016141
4,389491	190,347557	41,48	-0,010241
4,403413	204,309701	42,21	-0,004181
4,417518	219,125774	42,98	0,002249
4,431468	231,625324	43,78	0,007674
4,445424	246,928553	44,57	0,014315
4,459465	261,195592	45,36	0,020507
4,473416	275,828278	46,13	0,026858
4,487433	290,400211	46,88	0,033182
4,501399	304,362354	47,65	0,039242
4,515378	316,677392	48,43	0,044586
4,529424	331,798360	49,19	0,051149
4,543426	345,578242	49,96	0,057129
4,557382	358,686456	50,75	0,062818
4,571419	373,745545	51,52	0,069354
4,585415	387,951829	52,28	0,075520
4,599376	402,097359	53,05	0,081659
4,602369	406,364757	53,81	0,083511
4,602382	406,487390	54,56	0,083564
4,602370	406,608898	55,31	0,083617
4,602405	406,182496	56,06	0,083432
4,602372	406,121742	56,85	0,083405
4,602384	406,243250	57,69	0,083458
4,602390	406,425511	58,47	0,083537
4,593382	398,622012	59,30	0,080150
4,579407	383,561798	60,12	0,073614
4,565431	369,234006	60,89	0,067396
4,551383	355,027722	61,64	0,061230
4,537373	341,370473	62,42	0,055303
4,523383	326,921173	63,17	0,049032
4,509384	312,349240	63,94	0,042708
4,495462	298,935007	64,72	0,036886
4,481408	285,339637	65,48	0,030986
4,486441	286,985617	66,22	0,031700
4,500442	300,521358	66,98	0,037575
4,514406	314,239361	67,75	0,043528
4,528471	328,872048	68,49	0,049879
4,542403	343,748875	69,26	0,056335
4,556432	357,771772	70,00	0,062421
4,570412	372,404459	70,77	0,068772
4,584393	385,940200	71,55	0,074646
4,598415	400,694394	72,31	0,081050
4,612376	413,925241	73,09	0,086792
4,626381	429,411857	73,86	0,093513
4,640432	443,678895	74,62	0,099705
4,654389	456,847863	75,38	0,105420
4,668377	470,200218	76,14	0,111215
4,682408	485,199678	76,91	0,117725
4,696453	499,344083	77,69	0,123864
4,710369	512,635684	78,47	0,129632
4,724394	526,171425	79,23	0,135507
4,738384	540,864865	79,98	0,141884
4,752469	555,436798	80,78	0,148208
4,766323	567,752961	81,56	0,153553
4,769376	573,728219	82,31	0,156146
4,769425	572,813535	83,05	0,155750
4,769327	572,569394	83,79	0,155644
4,769353	572,325254	84,55	0,155538
4,769353	571,898852	85,36	0,155353
4,769387	572,752781	86,27	0,155723
4,769345	572,569394	87,02	0,155644
4,760374	563,789333	87,80	0,151833
4,746450	551,290908	88,62	0,146409
4,732368	535,560151	89,41	0,139582
4,718360	520,561816	90,17	0,133072
4,704402	506,660426	90,92	0,127039
4,690355	493,063931	91,69	0,121138
4,676418	478,187104	92,49	0,114682
4,662381	464,530980	93,28	0,108755
4,648378	451,055993	94,05	0,102907
4,634400	435,995779	94,84	0,096371
4,620442	421,302338	95,62	0,089994
4,606404	406,791160	96,41	0,083696
4,611419	409,352949	97,17	0,084808
4,625381	424,412037	97,94	0,091343
4,639451	437,520251	98,69	0,097032
4,653443	452,580465	99,44	0,103568
4,667360	465,749433	100,21	0,109284
4,681410	480,199858	100,97	0,115555
4,695331	494,466896	101,72	0,121747
4,709403	509,038828	102,50	0,128071
4,723373	522,878339	103,26	0,134078
4,737390	537,999307	104,04	0,140640
4,751389	551,412415	104,80	0,146461
4,765309	566,715645	105,58	0,153103
4,779374	579,702351	106,35	0,158739
4,793353	593,787127	107,11	0,164852
4,807361	609,334497	107,90	0,171600
4,821335	623,357395	108,65	0,177686
4,835322	637,014644	109,43	0,183613
4,849335	649,940596	110,21	0,189223
4,863310	664,207634	110,97	0,195415
4,877340	678,961829	111,73	0,201818
4,891294	692,558324	112,50	0,207719
4,905272	707,435151	113,30	0,214175
4,919333	719,812068	114,07	0,219547
4,933291	734,251242	114,83	0,225813
4,936399	738,285750	115,59	0,227564
4,936277	739,078926	116,34	0,227909
4,936334	738,285750	117,10	0,227564
4,936328	738,346504	117,87	0,227591
4,936350	738,956293	118,68	0,227855
4,936267	738,042735	119,52	0,227459
4,936379	738,469137	120,23	0,227644
4,927353	731,518442	121,04	0,224627
4,913333	715,482791	121,89	0,217668
4,899324	702,130436	122,77	0,211873
4,885317	687,986031	123,51	0,205734
4,871306	672,986571	124,27	0,199225
4,857368	659,025553	125,03	0,193166
4,843296	645,001530	125,80	0,187079
4,829317	630,003195	126,58	0,180570
4,815338	616,528208	127,36	0,174722
4,801338	602,078908	128,12	0,168451
4,787398	587,567729	128,90	0,162153
4,773306	574,520269	129,67	0,156490
4,759346	559,643442	130,43	0,150034
4,745353	544,828494	131,18	0,143604
4,731406	531,048612	131,97	0,137624
4,736378	533,061366	132,71	0,138497
4,750406	547,389158	133,48	0,144715
4,764324	561,046407	134,23	0,150643
4,778363	576,288882	135,00	0,157258
4,792400	589,823499	135,76	0,163132
4,806357	604,334677	136,52	0,169430
4,820363	619,211505	137,31	0,175886
4,834298	632,624613	138,08	0,181708
4,848321	647,867088	138,85	0,188323
4,862369	660,914549	139,63	0,193985
4,876370	675,364973	140,40	0,200257
4,890293	690,668203	141,19	0,206898
4,904327	705,056749	141,95	0,213143
4,918338	718,836631	142,72	0,219124
4,932321	733,834965	143,48	0,225633
4,946308	747,005058	144,25	0,231349
4,960333	760,418167	145,02	0,237170
4,974284	774,319556	145,80	0,243203
4,988273	788,220946	146,57	0,249236
5,002299	802,731000	147,35	0,255534
5,016303	817,912721	148,15	0,262123
5,030296	830,716041	148,94	0,267679
5,044271	845,105712	149,71	0,273924
5,058277	859,555012	150,46	0,280195
5,072257	873,639788	151,27	0,286308
5,086269	886,808756	152,00	0,292023
5,100237	901,319934	152,77	0,298321
5,103256	906,197122	153,55	0,300438
5,103175	906,319754	154,32	0,300491
5,103230	905,954106	155,06	0,300333
5,103253	906,075614	155,84	0,300385
5,103315	905,344317	156,65	0,300068
5,103279	905,160930	157,49	0,299988
5,103216	905,649212	158,21	0,300200
5,094280	898,515130	159,03	0,297104
5,080253	884,003951	159,84	0,290806
5,066269	868,822230	160,61	0,284217
5,052249	854,982719	161,37	0,278211
5,038321	840,959821	162,12	0,272125
5,024257	826,265256	162,91	0,265748
5,010256	812,242359	163,68	0,259662
4,996315	798,097953	164,46	0,253523
4,982320	783,465267	165,25	0,247172
4,968283	769,806893	166,02	0,241245
4,954288	754,626296	166,81	0,234656
4,940341	740,175871	167,60	0,228385
4,926302	727,189165	168,35	0,222749
4,912270	712,679111	169,32	0,216451
4,898355	697,740405	170,08	0,209968
4,884363	683,107719	170,86	0,203617
4,870314	669,633857	171,67	0,197770
4,856339	655,549080	172,47	0,191657
4,842389	641,526183	173,30	0,185571
4,828326	626,771988	174,12	0,179167
4,814339	611,955915	174,91	0,172737
4,800373	597,933018	175,73	0,166651
4,786331	583,543347	176,50	0,160406
4,772369	569,154801	177,28	0,154162
4,758377	555,680939	178,04	0,148314
4,744353	540,315830	178,82	0,141646
4,730333	526,414441	179,58	0,135612
4,716398	513,062086	180,38	0,129817
4,702447	498,429399	181,15	0,123467
4,688405	483,796713	181,94	0,117116
4,674447	469,529675	182,73	0,110924
4,660431	455,811672	183,49	0,104971
4,646434	442,032915	184,24	0,098991
4,632422	428,192279	185,02	0,092984
4,618389	413,071312	185,80	0,086421
4,604442	399,475941	186,60	0,080521
4,590447	386,366602	187,36	0,074832
4,576383	371,551654	188,15	0,068402
4,562434	356,796335	188,93	0,061998
4,548452	343,322473	189,69	0,056150
4,534476	330,273888	190,45	0,050487
4,520432	315,093291	191,25	0,043899
4,506422	302,349600	192,01	0,038368
4,492445	287,534652	192,79	0,031938
4,478382	274,730208	193,57	0,026381
4,464458	259,487732	194,34	0,019766
4,450462	245,769729	195,12	0,013813
4,436438	232,417375	195,86	0,008018
4,422436	219,674809	196,64	0,002487
4,408453	206,322455	197,42	-0,003308
4,394416	192,543698	198,17	-0,009288
4,380452	178,032519	198,94	-0,015585
4,366476	164,923180	199,70	-0,021275
4,352458	149,498443	200,47	-0,027969
4,338491	136,755877	201,24	-0,033500
4,324525	122,549593	201,99	-0,039665
4,310454	108,282555	202,79	-0,045857
4,296468	94,869447	203,56	-0,051678
4,282483	80,297514	204,36	-0,058002
4,268457	68,102859	205,11	-0,063295
4,254497	53,775067	205,91	-0,069513
4,240526	39,325767	206,70	-0,075784
4,226469	26,034166	207,47	-0,081553
4,212484	10,791691	208,24	-0,088168
4,198512	-2,927437	209,00	-0,094122
4,184540	-0,975437	209,79	-0,093275
4,170517	-0,304895	210,67	-0,092984
4,156558	-0,060754	211,50	-0,092878
4,142559	-0,427527	212,37	-0,093037
4,128511	-0,427527	213,29	-0,093037
4,114515	-0,183387	214,05	-0,092931
4,101535	-0,549035	214,73	-0,093090