File: Nanoindentation Datenauswertung/data/partial unload on sapphire-3,50ms
Quasi static measurement routine
Tip parameters (shape,radius, material...)
28.06.2022

Piezo position[nm]	MEMS displ.[nm]	Time[ms]	Cap [pf]
eoh
4,293621	0,000000	0,020	-0,093222
4,306594	-0,059925	0,641	-0,093249
4,319617	-0,240811	1,293	-0,093328
4,332553	-0,240811	1,945	-0,093328
4,345572	-0,119851	2,598	-0,093275
4,358611	-0,300737	3,249	-0,093354
4,371576	-0,240811	3,902	-0,093328
4,384639	0,179776	4,557	-0,093143
4,397569	11,486816	5,208	-0,088168
4,410614	23,333185	5,859	-0,082956
4,423616	36,865234	6,510	-0,077001
4,436590	49,434038	7,161	-0,071471
4,449548	62,062766	7,812	-0,065915
4,462589	75,774592	8,465	-0,059881
4,475611	87,802956	9,118	-0,054589
4,488571	101,573597	9,770	-0,048530
4,493579	107,046786	10,424	-0,046122
4,493605	106,686124	11,075	-0,046280
4,493556	106,746049	11,727	-0,046254
4,493590	106,926935	12,382	-0,046174
4,493549	106,865900	13,033	-0,046201
4,493584	106,805975	13,687	-0,046228
4,493603	107,226563	14,339	-0,046042
4,493583	107,588335	14,990	-0,045883
4,481522	95,860707	15,645	-0,051043
4,468625	82,810281	16,302	-0,056786
4,455556	69,820890	16,955	-0,062501
4,443549	56,650613	17,608	-0,068296
4,456549	69,038530	18,222	-0,062845
4,469569	81,909180	18,876	-0,057182
4,482610	94,477983	19,529	-0,051652
4,495563	108,068848	20,182	-0,045672
4,508565	120,637651	20,835	-0,040142
4,521571	132,845792	21,487	-0,034770
4,534541	145,595481	22,141	-0,029160
4,547596	159,126420	22,792	-0,023207
4,560568	171,995961	23,443	-0,017544
4,573535	184,745650	24,095	-0,011934
4,586499	198,216664	24,748	-0,006007
4,599523	209,643555	25,400	-0,000979
4,612531	223,595082	26,054	0,005160
4,625524	236,585582	26,707	0,010875
4,638590	249,996671	27,359	0,016776
4,651522	262,806286	28,012	0,022413
4,664521	275,675826	28,663	0,028075
4,677485	288,786177	29,315	0,033844
4,690510	301,354980	29,972	0,039374
4,693489	304,661976	30,628	0,040829
4,693487	304,121538	31,281	0,040591
4,693490	304,602051	31,933	0,040803
4,693504	304,542125	32,590	0,040776
4,693439	304,482200	33,244	0,040750
4,693502	304,361239	33,895	0,040697
4,693494	304,902788	34,546	0,040935
4,692523	304,361239	35,198	0,040697
4,679491	291,131037	35,851	0,034875
4,666519	279,825107	36,503	0,029901
4,653569	265,932395	37,155	0,023788
4,640507	252,281605	37,810	0,017782
4,627513	238,870517	38,463	0,011881
4,614554	226,301713	39,114	0,006351
4,601571	213,191362	39,767	0,000582
4,597560	208,018910	40,383	-0,001694
4,610560	220,528897	41,038	0,003811
4,623499	233,518288	41,690	0,009526
4,636601	246,327903	42,341	0,015162
4,649507	259,858842	42,993	0,021116
4,662517	272,668457	43,648	0,026752
4,675555	285,718883	44,301	0,032494
4,688470	299,189897	44,956	0,038421
4,701511	312,059437	45,608	0,044084
4,714521	325,109863	46,259	0,049826
4,727503	336,475719	46,910	0,054827
4,740433	350,848944	47,560	0,061151
4,753437	363,537598	48,213	0,066734
4,766440	376,528098	48,866	0,072450
4,779448	389,217862	49,520	0,078034
4,792490	402,267179	50,171	0,083775
4,805420	414,956942	50,826	0,089359
4,818487	428,547807	51,479	0,095339
4,831484	440,696023	52,134	0,100684
4,844424	453,385787	52,786	0,106268
4,857470	466,976651	53,441	0,112248
4,870436	479,425604	54,093	0,117725
4,883391	491,873446	54,746	0,123202
4,893398	503,240412	55,400	0,128204
4,893425	502,879750	56,055	0,128045
4,893393	503,179377	56,707	0,128177
4,893382	503,059526	57,358	0,128124
4,893459	502,939675	58,011	0,128071
4,893445	502,758789	58,669	0,127992
4,893452	502,999600	59,322	0,128098
4,893425	502,939675	59,976	0,128071
4,886470	497,346635	60,630	0,125610
4,873471	483,453924	61,285	0,119498
4,860471	470,103871	61,943	0,113624
4,847440	457,895730	62,598	0,108252
4,834452	444,965154	63,249	0,102563
4,821501	430,953702	63,903	0,096397
4,808543	417,783425	64,555	0,090603
4,795418	405,093661	65,205	0,085019
4,782540	392,524858	65,857	0,079489
4,769468	379,354581	66,509	0,073694
4,756501	366,604892	67,160	0,068084
4,743538	353,133878	67,811	0,062157
4,755547	363,057085	68,429	0,066523
4,768558	376,588024	69,081	0,072477
4,781485	389,036976	69,737	0,077954
4,794469	402,448065	70,388	0,083855
4,807493	415,197754	71,038	0,089465
4,820430	428,607733	71,689	0,095365
4,833440	441,718084	72,348	0,101134
4,846461	454,647550	73,002	0,106823
4,859500	467,337314	73,656	0,112406
4,872485	480,567516	74,308	0,118228
4,885435	493,858754	74,962	0,124076
4,898417	506,848145	75,613	0,129791
4,911451	519,898571	76,265	0,135533
4,924402	532,648260	76,916	0,141143
4,937396	544,555664	77,566	0,146382
4,950417	558,206454	78,220	0,152389
4,963396	571,256880	78,873	0,158131
4,976440	584,247381	79,526	0,163847
4,989418	597,296697	80,179	0,169588
5,002384	609,625799	80,832	0,175013
5,015426	623,336515	81,486	0,181046
5,028370	635,484730	82,136	0,186391
5,041429	648,475231	82,794	0,192107
5,054359	660,923074	83,444	0,197584
5,067388	674,093350	84,096	0,203379
5,080338	686,783114	84,754	0,208962
5,093325	699,773615	85,407	0,214678
5,093379	701,035378	86,059	0,215233
5,093337	700,435014	86,713	0,214969
5,093396	700,915527	87,368	0,215181
5,093414	700,554865	88,021	0,215022
5,093319	700,795676	88,674	0,215128
5,093379	700,013317	89,326	0,214784
5,093449	701,156339	89,979	0,215287
5,089380	697,246760	90,634	0,213566
5,076342	683,476119	91,285	0,207507
5,063415	671,266868	91,939	0,202135
5,050332	657,795854	92,590	0,196208
5,037392	644,866388	93,242	0,190519
5,024413	631,876998	93,901	0,184804
5,011411	619,547896	94,557	0,179379
4,998396	605,776145	95,209	0,173319
4,985414	592,125355	95,862	0,167313
4,972436	579,435591	96,515	0,161729
4,959416	566,746937	97,166	0,156146
4,946428	553,515625	97,820	0,150325
4,933375	540,646085	98,475	0,144662
4,920423	527,294922	99,129	0,138788
4,907420	515,327592	99,782	0,133522
4,894418	500,713556	100,434	0,127092
4,904409	509,494851	101,065	0,130956
4,917436	522,665128	101,717	0,136750
4,930501	535,594593	102,369	0,142439
4,943399	547,862660	103,020	0,147837
4,956399	560,612349	103,673	0,153447
4,969477	574,384100	104,331	0,159507
4,982377	586,952903	104,985	0,165037
4,995372	600,483842	105,639	0,170991
5,008419	613,353382	106,293	0,176653
5,021418	625,742409	106,944	0,182104
5,034399	639,995783	107,600	0,188376
5,047413	652,985174	108,250	0,194091
5,060376	665,734863	108,905	0,199701
5,073390	679,024991	109,559	0,205549
5,086323	692,075417	110,220	0,211291
5,099330	705,426580	110,878	0,217166
5,112413	717,814498	111,530	0,222616
5,125400	730,624112	112,184	0,228252
5,138332	743,373801	112,836	0,233862
5,151350	756,484153	113,489	0,239631
5,164389	769,955167	114,143	0,245558
5,177358	782,523970	114,796	0,251088
5,190338	795,032848	115,448	0,256592
5,203320	808,563787	116,100	0,262546
5,216361	821,373402	116,752	0,268182
5,229336	834,002131	117,404	0,273739
5,242305	846,811745	118,057	0,279375
5,255300	860,102983	118,713	0,285223
5,268310	872,251199	119,374	0,290568
5,281275	885,300515	120,030	0,296310
5,293295	898,231090	120,686	0,302000
5,293227	898,711603	121,340	0,302211
5,293307	898,771529	121,991	0,302237
5,293295	898,892489	122,644	0,302291
5,293350	898,050204	123,296	0,301920
5,293329	898,591752	123,950	0,302158
5,293270	898,110130	124,605	0,301946
5,293349	898,110130	125,260	0,301946
5,288331	894,261586	125,914	0,300253
5,275334	882,234331	126,567	0,294961
5,262319	868,221768	127,227	0,288795
5,249327	854,390092	127,881	0,282709
5,236348	842,361728	128,543	0,277417
5,223274	829,191451	129,195	0,271622
5,210410	816,081099	129,847	0,265854
5,197359	802,369274	130,500	0,259820
5,184420	789,740545	131,152	0,254264
5,171359	776,990856	131,806	0,248654
5,158378	763,941539	132,459	0,242912
5,145377	751,311701	133,112	0,237355
5,132374	738,682972	133,766	0,231798
5,119390	724,730336	134,418	0,225659
5,106371	711,619984	135,070	0,219891
5,093397	698,089045	135,726	0,213937
5,080377	685,340465	136,393	0,208328
5,067380	672,349964	137,054	0,202612
5,054457	659,841087	137,707	0,197108
5,041445	645,828525	138,362	0,190942
5,028399	633,439498	139,014	0,185491
5,015361	619,547896	139,666	0,179379
5,002414	606,438654	140,317	0,173611
4,989440	594,890803	140,974	0,168530
4,976360	580,819425	141,627	0,162338
4,963448	568,309437	142,279	0,156834
4,950415	554,598722	142,937	0,150801
4,937467	541,548295	143,595	0,145059
4,924487	528,678755	144,257	0,139396
4,911476	515,809215	144,913	0,133734
4,898429	502,698864	145,567	0,127965
4,885465	489,046964	146,219	0,121958
4,872474	476,539196	146,872	0,116455
4,859425	463,307884	147,525	0,110633
4,846507	450,679155	148,176	0,105077
4,833494	437,208141	148,832	0,099149
4,820563	423,856978	149,485	0,093275
4,807526	412,551048	150,141	0,088300
4,794470	398,237749	150,803	0,082002
4,781490	384,586958	151,462	0,075996
4,768527	372,378817	152,114	0,070625
4,755508	359,869940	152,769	0,065121
4,742560	346,518777	153,421	0,059246
4,729588	334,431596	154,075	0,053928
4,716500	321,441096	154,728	0,048212
4,703576	309,052069	155,402	0,042761
4,690526	295,340243	156,054	0,036728
4,677577	282,711515	156,707	0,031171
4,664517	270,383523	157,359	0,025747
4,651519	256,972434	158,016	0,019846
4,638558	244,222745	158,670	0,014236
4,625643	231,653942	159,327	0,008706
4,612535	219,325950	159,981	0,003281
4,599559	206,876998	160,638	-0,002196
4,586511	194,848633	161,297	-0,007489
4,573589	182,339755	161,961	-0,012993
4,560612	171,395597	162,614	-0,017808
4,547598	156,480824	163,272	-0,024371
4,534562	144,091797	163,923	-0,029822
4,521634	132,245428	164,574	-0,035034
4,508623	119,675515	165,226	-0,040565
4,495588	106,265536	165,879	-0,046465
4,482541	93,816584	166,531	-0,051943
4,469589	80,826083	167,193	-0,057659
4,456577	67,655806	167,857	-0,063454
4,443580	55,868253	168,513	-0,068640
4,430624	42,638050	169,167	-0,074461
4,417615	31,212269	169,820	-0,079489
4,404630	16,839045	170,472	-0,085813
4,391603	4,149281	171,126	-0,091396
4,378628	-0,721325	171,777	-0,093540
4,365598	-0,180886	172,429	-0,093302
4,352638	-0,360662	173,081	-0,093381
4,339597	-0,902211	173,734	-0,093619
4,326610	0,000000	174,385	-0,093222
4,313686	-0,119851	175,036	-0,093275
4,300666	-0,180886	175,689	-0,093302
4,293618	-0,480513	176,043	-0,093434