File: Nanoindentation Datenauswertung/data/partial unload on sapphire-2,25ms
Quasi static measurement routine
Tip parameters (shape,radius, material...)
28.06.2022

Piezo position[nm]	MEMS displ.[nm]	Time[ms]	Cap [pf]
eoh
4,291510	-0,541548	0,038	-0,093222
4,306630	-0,902211	0,706	-0,093381
4,319628	-0,963246	1,372	-0,093408
4,332603	-0,661399	2,039	-0,093275
4,345668	-0,782360	2,697	-0,093328
4,358590	-0,361772	3,378	-0,093143
4,371620	-0,722434	4,047	-0,093302
4,384607	0,901101	4,717	-0,092587
4,397611	13,891602	5,400	-0,086872
4,410608	26,520330	6,072	-0,081315
4,423580	39,270020	6,730	-0,075705
4,436628	52,621183	7,423	-0,069831
4,449604	65,130060	8,094	-0,064327
4,462600	77,638938	8,760	-0,058823
4,475639	90,147816	9,441	-0,053319
4,488563	104,340154	10,117	-0,047074
4,493579	108,971058	10,787	-0,045037
4,493552	109,511497	11,475	-0,044799
4,493656	109,271795	12,159	-0,044904
4,493592	109,211870	12,828	-0,044931
4,493609	109,391646	13,517	-0,044852
4,493598	108,971058	14,192	-0,045037
4,493542	108,790172	14,864	-0,045116
4,493561	109,331721	15,532	-0,044878
4,481571	98,446378	16,216	-0,049667
4,468625	85,397061	16,898	-0,055409
4,455584	72,587447	17,568	-0,061045
4,444574	58,815696	18,243	-0,067105
4,457600	72,105824	18,917	-0,061257
4,470558	84,554776	19,595	-0,055780
4,483553	98,205566	20,284	-0,049773
4,496554	111,436879	20,963	-0,043952
4,509597	124,005682	21,669	-0,038421
4,522607	136,634411	22,342	-0,032865
4,535559	149,503951	23,029	-0,027202
4,548566	163,034890	23,722	-0,021249
4,561595	175,784579	24,397	-0,015639
4,574563	188,594194	25,080	-0,010002
4,587585	201,403809	25,762	-0,004366
4,600636	214,874822	26,458	0,001561
4,613562	227,082963	27,140	0,006933
4,626535	240,553977	27,804	0,012860
4,639577	253,002930	28,489	0,018337
4,652562	266,053356	29,160	0,024080
4,665558	278,801935	29,848	0,029689
4,678564	291,732511	30,528	0,035378
4,691560	304,120428	31,201	0,040829
4,693564	307,368608	31,892	0,042258
4,693495	307,488459	32,583	0,042311
4,693502	307,067871	33,272	0,042126
4,693500	307,308683	33,942	0,042232
4,693541	307,669345	34,630	0,042391
4,693518	307,548384	35,305	0,042337
4,693532	307,067871	35,978	0,042126
4,692509	307,308683	36,655	0,042232
4,679524	294,558993	37,351	0,036622
4,666607	280,666282	38,023	0,030509
4,653530	267,616966	38,709	0,024768
4,640505	255,168013	39,398	0,019290
4,627514	242,298473	40,083	0,013627
4,614536	228,646573	40,740	0,007621
4,601541	216,258656	41,431	0,002170
4,598547	211,327015	42,111	0,000000
4,611542	223,895819	42,790	0,005530
4,624545	238,148082	43,468	0,011801
4,637544	249,875710	44,162	0,016961
4,650588	263,526500	44,859	0,022968
4,663519	277,479137	45,527	0,029107
4,676521	289,627353	46,223	0,034452
4,689536	302,436967	46,912	0,040088
4,702566	315,125621	47,590	0,045671
4,715569	329,438920	48,287	0,051969
4,728515	341,407360	48,963	0,057235
4,741489	354,275790	49,632	0,062897
4,754511	367,446067	50,343	0,068692
4,767511	380,135831	51,039	0,074276
4,780490	393,306108	51,740	0,080071
4,793488	405,995872	52,419	0,085654
4,806500	418,504750	53,116	0,091158
4,819502	430,772816	53,786	0,096556
4,832460	444,003018	54,485	0,102377
4,845521	457,294256	55,155	0,108226
4,858484	469,922985	55,859	0,113782
4,871445	482,371937	56,570	0,119260
4,884451	496,022727	57,238	0,125266
4,893505	505,645197	57,956	0,129500
4,893438	505,464311	58,662	0,129420
4,893414	505,224609	59,362	0,129315
4,893501	505,224609	60,039	0,129315
4,893476	505,284535	60,742	0,129341
4,893395	505,224609	61,454	0,129315
4,893437	505,464311	62,162	0,129420
4,893440	505,705123	62,835	0,129526
4,885481	498,248846	63,544	0,126246
4,872444	485,919744	64,239	0,120821
4,859439	472,147994	64,940	0,114761
4,846450	458,736905	65,608	0,108860
4,833490	446,348988	66,319	0,103410
4,820467	431,794877	67,026	0,097006
4,807537	419,707697	67,717	0,091688
4,794499	407,017933	68,393	0,086104
4,781474	394,088468	69,102	0,080415
4,768463	381,157892	69,805	0,074726
4,755500	367,686879	70,492	0,068798
4,744490	354,817338	71,162	0,063136
4,757521	367,507102	71,855	0,068719
4,770542	380,737305	72,557	0,074541
4,783496	393,727805	73,243	0,080256
4,796478	407,318670	73,951	0,086236
4,808475	419,226074	74,665	0,091476
4,821509	432,637163	75,370	0,097376
4,834503	445,326926	76,033	0,102960
4,847441	458,736905	76,730	0,108860
4,860517	472,268954	77,448	0,114814
4,873447	484,837757	78,127	0,120345
4,886482	497,767223	78,806	0,126034
4,899404	510,817649	79,526	0,131776
4,912474	523,446378	80,243	0,137333
4,925489	537,278054	80,953	0,143418
4,938392	550,629217	81,639	0,149293
4,951435	561,514560	82,371	0,154083
4,964411	574,503951	83,084	0,159798
4,977445	587,795188	83,794	0,165646
4,990482	600,724654	84,472	0,171335
5,003479	613,413308	85,171	0,176918
5,016427	626,343883	85,876	0,182607
5,029402	639,393200	86,585	0,188349
5,042441	652,262740	87,300	0,194012
5,055358	664,832653	87,992	0,199542
5,068432	678,363592	88,699	0,205496
5,081380	691,113281	89,414	0,211106
5,093425	703,742010	90,114	0,216663
5,093351	702,719949	90,799	0,216213
5,093393	703,561124	91,499	0,216583
5,093418	702,959650	92,198	0,216318
5,093389	702,779874	92,873	0,216239
5,093392	702,358176	93,578	0,216054
5,093387	702,598988	94,285	0,216160
5,093396	702,479137	94,987	0,216107
5,087420	697,367720	95,674	0,213858
5,074409	684,437145	96,378	0,208168
5,061380	671,266868	97,086	0,202374
5,048438	658,578214	97,805	0,196791
5,035386	644,866388	98,515	0,190757
5,022344	631,996848	99,193	0,185095
5,009464	619,367010	99,899	0,179538
4,996474	606,196733	100,597	0,173743
4,983423	592,725719	101,312	0,167815
4,970420	580,096990	101,985	0,162259
4,957404	567,407227	102,673	0,156675
4,944479	553,876287	103,389	0,150722
4,931431	540,526234	104,081	0,144848
4,918505	528,017356	104,781	0,139344
4,905470	513,944869	105,495	0,133152
4,893395	501,555842	106,216	0,127701
4,906446	513,763983	106,923	0,133072
4,919420	526,573597	107,608	0,138708
4,932416	539,683949	108,299	0,144477
4,945430	552,553489	109,023	0,150140
4,958464	566,205389	109,740	0,156146
4,971439	578,774192	110,428	0,161677
4,984424	592,004395	111,143	0,167498
4,997425	604,933860	111,864	0,173187
5,010431	617,623624	112,579	0,178771
5,023407	631,696112	113,268	0,184962
5,036403	643,783292	113,989	0,190281
5,049458	657,194380	114,707	0,196182
5,062396	670,725320	115,427	0,202135
5,075394	682,934570	116,147	0,207507
5,088382	696,645286	116,843	0,213540
5,101342	709,575861	117,564	0,219229
5,114373	722,625178	118,281	0,224971
5,127326	735,255016	118,994	0,230528
5,140404	748,003596	119,676	0,236138
5,153308	761,354759	120,395	0,242012
5,166317	773,622825	121,116	0,247410
5,179343	787,033913	121,834	0,253311
5,192363	799,242054	122,548	0,258683
5,205360	812,772994	123,244	0,264636
5,218344	825,462757	123,949	0,270220
5,231333	838,212447	124,629	0,275830
5,244308	851,321689	125,320	0,281598
5,257336	864,612926	126,002	0,287446
5,270332	876,880993	126,703	0,292844
5,283360	890,111195	127,390	0,298665
5,293354	900,755726	128,070	0,303349
5,293341	901,177424	128,803	0,303534
5,293330	900,335138	129,502	0,303164
5,293293	900,936612	130,209	0,303428
5,293363	901,237349	130,899	0,303561
5,293342	900,575950	131,614	0,303270
5,293310	900,695801	132,327	0,303322
5,293340	900,755726	133,039	0,303349
5,286297	894,502397	133,755	0,300597
5,273332	880,549760	134,425	0,294458
5,260275	867,620295	135,142	0,288769
5,247336	854,629794	135,860	0,283053
5,234342	841,941140	136,566	0,277470
5,221319	828,469016	137,253	0,271542
5,208309	814,938077	137,953	0,265589
5,195363	802,970748	138,673	0,260323
5,182352	789,981357	139,392	0,254608
5,169379	777,171742	140,079	0,248972
5,156406	762,797408	140,799	0,242647
5,143355	750,108754	141,513	0,237064
5,130429	737,780762	142,234	0,231640
5,117370	724,670410	142,960	0,225871
5,104427	711,800870	143,642	0,220208
5,091409	698,329856	144,362	0,214281
5,078345	684,857733	145,072	0,208354
5,065374	671,808416	145,777	0,202612
5,052359	658,397328	146,474	0,196711
5,039377	645,828525	147,195	0,191181
5,026329	632,598322	147,907	0,185359
5,013405	619,968484	148,614	0,179802
5,000482	606,136808	149,307	0,173716
4,987426	593,747781	150,023	0,168265
4,974485	580,457653	150,732	0,162417
4,961430	568,008700	151,448	0,156940
4,948435	555,139160	152,169	0,151277
4,935412	541,127708	152,867	0,145112
4,922384	527,836470	153,574	0,139264
4,909471	514,546342	154,290	0,133417
4,896458	502,217241	155,014	0,127992
4,883444	490,249911	155,740	0,122726
4,870474	476,297275	156,428	0,116587
4,857482	463,789506	157,152	0,111083
4,844436	449,235396	157,875	0,104680
4,831450	437,688654	158,602	0,099599
4,818454	424,938965	159,278	0,093989
4,805564	410,926403	159,993	0,087824
4,792517	399,259810	160,703	0,082690
4,779415	386,390270	161,422	0,077028
4,766612	373,160067	162,105	0,071207
4,753571	359,808904	162,835	0,065332
4,740520	346,578702	163,554	0,059511
4,727461	334,129750	164,267	0,054033
4,714533	321,320135	164,997	0,048397
4,701454	308,149858	165,682	0,042602
4,688551	295,461204	166,399	0,037019
4,675529	283,072177	167,113	0,031568
4,662604	270,202637	167,837	0,025905
4,649532	257,693759	168,528	0,020401
4,636490	244,162820	169,229	0,014448
4,623521	231,293279	169,939	0,008785
4,610542	219,264915	170,662	0,003493
4,597581	206,275524	171,402	-0,002223
4,584513	193,766646	172,098	-0,007727
4,571548	181,618430	172,806	-0,013072
4,558563	169,229403	173,522	-0,018523
4,545576	157,021262	174,229	-0,023895
4,532577	143,971946	174,921	-0,029636
4,519612	132,003507	175,643	-0,034902
4,506607	119,434703	176,371	-0,040433
4,493573	106,385387	177,098	-0,046174
4,480587	93,394886	177,822	-0,051890
4,467606	80,164684	178,509	-0,057711
4,454579	68,016468	179,238	-0,063057
4,441563	55,989213	179,952	-0,068349
4,428641	42,878862	180,688	-0,074117
4,415595	30,308949	181,401	-0,079648
4,402637	16,839045	182,092	-0,085575
4,389623	4,750755	182,820	-0,090894
4,376605	-4,811790	183,540	-0,095101
4,363628	-1,022061	184,259	-0,093434
4,350604	-0,421697	184,998	-0,093169
4,337616	0,000000	185,690	-0,092984
4,324652	-0,601474	186,412	-0,093249
4,311616	-0,661399	187,138	-0,093275
4,298609	-0,300737	187,857	-0,093116
4,293637	-0,361772	188,109	-0,093143