File: Nanoindentation Datenauswertung/data/test
Quasi static measurement routine
Tip parameters (shape,radius, material...)
02.09.2022

Piezo position[nm]	MEMS displ.[nm]	Time[ms]	Cap [pf]	Temp [°C]	Rh [%]
eoh
1,367984	-0,325112	0,187	-0,134356	22,500000	46,420000
1,386058	-0,274812	1,091	-0,134336	22,500000	46,420000
1,404017	-0,041712	1,994	-0,134243	22,490000	46,410000
1,422072	-0,142313	2,901	-0,134283	22,490000	46,410000
1,440057	-0,067476	3,804	-0,134253	22,510000	46,440000
1,458009	-0,341061	4,706	-0,134362	22,510000	46,440000
1,476032	-0,224511	5,608	-0,134316	22,500000	46,475000
1,494021	-0,133725	6,510	-0,134280	22,500000	46,475000
1,512006	-0,109189	7,415	-0,134270	22,500000	46,460000
1,530040	-0,133725	8,318	-0,134280	22,500000	46,460000
1,548076	0,198748	9,222	-0,134147	22,500000	46,460000
1,566038	-0,184026	10,124	-0,134300	22,490000	46,435000
1,584029	-0,316524	11,026	-0,134353	22,490000	46,435000
1,602046	-0,366824	11,933	-0,134373	22,500000	46,435000
1,620026	-0,133725	12,836	-0,134280	22,500000	46,435000
1,637998	-0,257636	13,737	-0,134329	22,500000	46,435000
1,656086	-0,391361	14,639	-0,134382	22,500000	46,435000
1,674009	-0,175438	15,542	-0,134296	22,490000	46,410000
1,692051	-0,457610	16,444	-0,134409	22,490000	46,410000
1,709995	-0,374185	17,345	-0,134375	22,510000	46,465000
1,728020	-0,325112	18,253	-0,134356	22,510000	46,465000
1,745984	-0,408537	19,155	-0,134389	22,510000	46,465000
1,763940	-0,307936	20,057	-0,134349	22,510000	46,465000
1,782033	-0,399949	20,959	-0,134386	22,510000	46,465000
1,799947	-0,532447	21,863	-0,134438	22,510000	46,425000
1,818064	-0,482147	22,765	-0,134418	22,510000	46,425000
1,836016	-32,145591	23,665	-0,147021	22,500000	46,435000
1,853946	-13,863262	24,566	-0,139744	22,500000	46,435000
1,871958	6,033586	25,467	-0,131825	22,500000	46,435000
1,890039	23,069449	26,369	-0,125045	22,500000	46,435000
1,908012	40,439011	27,274	-0,118132	22,500000	46,435000
1,925989	58,015910	28,175	-0,111136	22,510000	46,465000
1,943999	75,975581	29,078	-0,103988	22,510000	46,465000
1,962006	94,008863	29,980	-0,096811	22,510000	46,425000
1,980016	113,813697	30,884	-0,088929	22,510000	46,425000
1,997937	129,960103	31,785	-0,082502	22,510000	46,425000
2,016016	149,407928	32,686	-0,074762	22,510000	46,425000
2,033970	166,178794	33,590	-0,068087	22,500000	46,450000
2,051974	184,129878	34,496	-0,060943	22,500000	46,450000
2,070028	202,229409	35,397	-0,053739	22,500000	46,460000
2,087971	222,183918	36,298	-0,045797	22,500000	46,460000
2,106006	238,430924	37,199	-0,039331	22,500000	46,460000
2,123941	257,927823	38,101	-0,031571	22,500000	46,380000
2,142028	275,396759	39,006	-0,024619	22,500000	46,380000
2,159950	293,114744	39,906	-0,017567	22,510000	46,440000
2,177976	310,526019	40,808	-0,010637	22,510000	46,440000
2,195980	328,601013	41,711	-0,003443	22,500000	46,460000
2,213993	346,543509	42,615	0,003698	22,500000	46,460000
2,231951	365,840433	43,518	0,011378	22,500000	46,460000
2,250016	384,905484	44,422	0,018966	22,500000	46,460000
2,267988	400,962331	45,327	0,025356	22,510000	46,425000
2,285987	418,779689	46,228	0,032448	22,510000	46,425000
2,303930	438,791860	47,133	0,040413	22,510000	46,425000
2,322030	456,219084	48,036	0,047349	22,510000	46,440000
2,340013	473,679432	48,939	0,054298	22,510000	46,440000
2,357935	490,941033	49,841	0,061168	22,510000	46,440000
2,375908	510,603555	50,744	0,068994	22,510000	46,440000
2,393993	526,700887	51,645	0,075400	22,510000	46,455000
2,411949	546,879907	52,547	0,083432	22,510000	46,455000
2,429958	562,944115	53,450	0,089825	22,510000	46,455000
2,447999	582,274164	54,351	0,097519	22,510000	46,455000
2,466014	599,344378	55,255	0,104313	22,510000	46,455000
2,484011	617,461085	56,160	0,111523	22,510000	46,400000
2,501954	636,949395	57,062	0,119279	22,510000	46,400000
2,520007	653,612300	57,964	0,125911	22,510000	46,400000
2,537971	672,934987	58,867	0,133602	22,510000	46,400000
2,556022	689,248243	59,773	0,140094	22,500000	46,410000
2,573984	707,772260	60,676	0,147467	22,500000	46,410000
2,591984	725,449759	61,577	0,154502	22,500000	46,410000
2,610016	743,383666	62,477	0,161640	22,500000	46,410000
2,627972	763,453498	63,380	0,169628	22,510000	46,465000
2,646002	781,513770	64,281	0,176816	22,510000	46,465000
2,663966	797,569390	65,182	0,183206	22,510000	46,465000
2,682036	816,800065	66,085	0,190860	22,510000	46,440000
2,700017	833,936528	66,987	0,197680	22,510000	46,440000
2,717935	852,378347	67,889	0,205020	22,510000	46,440000
2,736006	870,054619	68,794	0,212055	22,510000	46,440000
2,753976	889,593230	69,695	0,219832	22,500000	46,435000
2,771945	907,053578	70,596	0,226781	22,500000	46,435000
2,789984	924,256291	71,499	0,233627	22,490000	46,395000
2,807950	943,652589	72,400	0,241347	22,490000	46,395000
2,825920	962,019571	73,304	0,248657	22,490000	46,395000
2,843949	979,347421	74,207	0,255554	22,510000	46,465000
2,861985	996,267961	75,108	0,262288	22,510000	46,465000
2,867975	1003,713637	76,010	0,265251	22,490000	46,450000
2,857903	993,442555	76,914	0,261164	22,490000	46,450000
2,839918	974,868238	77,816	0,253771	22,500000	46,420000
2,821985	956,974815	78,718	0,246649	22,500000	46,420000
2,803981	939,822403	79,624	0,239823	22,520000	46,440000
2,785973	921,613684	80,525	0,232576	22,520000	46,440000
2,767941	901,136542	81,428	0,224426	22,510000	46,425000
2,749948	882,752385	82,330	0,217109	22,510000	46,425000
2,731997	865,025813	83,233	0,210054	22,510000	46,425000
2,713935	846,858806	84,134	0,202823	22,500000	46,410000
2,695923	827,645307	85,038	0,195176	22,500000	46,410000
2,677971	811,222862	85,940	0,188640	22,500000	46,410000
2,659946	793,605479	86,842	0,181628	22,500000	46,410000
2,641924	774,714638	87,744	0,174110	22,510000	46,425000
2,623965	754,860729	88,645	0,166208	22,510000	46,425000
2,606010	736,676547	89,548	0,158971	22,510000	46,425000
2,587996	718,676390	90,448	0,151807	22,510000	46,425000
2,569977	700,841856	91,352	0,144708	22,510000	46,400000
2,551920	683,938491	92,255	0,137981	22,510000	46,400000
2,533985	665,322462	93,158	0,130572	22,510000	46,400000
2,515960	645,177793	94,060	0,122554	22,510000	46,400000
2,497880	626,877061	94,962	0,115271	22,510000	46,400000
2,480019	609,458425	95,867	0,108338	22,500000	46,450000
2,462025	591,091444	96,769	0,101028	22,500000	46,450000
2,443968	574,296041	97,670	0,094343	22,510000	46,415000
2,426022	554,067947	98,574	0,086292	22,510000	46,415000
2,407929	535,951241	99,475	0,079082	22,500000	46,420000
2,390008	519,786432	100,376	0,072648	22,500000	46,420000
2,372013	499,849099	101,281	0,064713	22,500000	46,420000
2,354020	481,848942	102,184	0,057549	22,500000	46,420000
2,336008	464,014408	103,085	0,050451	22,500000	46,420000
2,317965	446,853408	103,987	0,043621	22,510000	46,425000
2,300013	426,890311	104,888	0,035676	22,510000	46,425000
2,282043	408,765016	105,791	0,028462	22,500000	46,420000
2,263977	392,908144	106,694	0,022151	22,500000	46,420000
2,245994	374,575514	107,598	0,014854	22,500000	46,410000
2,227986	356,424456	108,499	0,007630	22,500000	46,410000
2,210038	336,995034	109,400	-0,000103	22,500000	46,450000
2,192009	319,169088	110,300	-0,007197	22,500000	46,450000
2,173981	301,649851	111,202	-0,014170	22,500000	46,450000
2,156031	282,368876	112,106	-0,021844	22,510000	46,455000
2,138006	264,118444	113,009	-0,029107	22,510000	46,455000
2,119954	246,267961	113,913	-0,036212	22,510000	46,455000
2,102012	228,466552	114,814	-0,043297	22,510000	46,455000
2,083983	211,745986	115,717	-0,049952	22,510000	46,440000
2,065985	193,877100	116,618	-0,057063	22,510000	46,440000
2,048043	176,076918	117,524	-0,064148	22,510000	46,415000
2,030005	158,225208	118,426	-0,071253	22,510000	46,415000
2,011992	138,270699	119,328	-0,079195	22,510000	46,440000
1,994006	122,040868	120,229	-0,085654	22,510000	46,440000
1,976036	103,050654	121,132	-0,093212	22,510000	46,440000
1,958000	84,019953	122,033	-0,100787	22,510000	46,440000
1,940012	66,035745	122,934	-0,107944	22,510000	46,440000
1,922057	46,730233	123,839	-0,115628	22,500000	46,450000
1,904017	27,881105	124,741	-0,123130	22,500000	46,450000
1,886029	9,407389	125,645	-0,130482	22,500000	46,410000
1,868026	-8,809919	126,545	-0,137733	22,500000	46,410000
1,850049	-27,126600	127,446	-0,145023	22,500000	46,435000
1,832011	-44,271651	128,348	-0,151847	22,500000	46,435000
1,813983	-62,654582	129,251	-0,159163	22,500000	46,435000
1,796001	-80,015556	130,155	-0,166073	22,520000	46,455000
1,778070	-99,695254	131,057	-0,173905	22,520000	46,455000
1,760009	-119,300114	131,960	-0,181708	22,500000	46,435000
1,742047	-136,710162	132,864	-0,188637	22,500000	46,435000
1,724055	-153,979124	133,766	-0,195510	22,500000	46,435000
1,706064	-171,473824	134,667	-0,202473	22,500000	46,435000
1,687996	-189,923004	135,571	-0,209816	22,510000	46,440000
1,670003	-207,674113	136,474	-0,216881	22,510000	46,440000
1,652033	-228,542615	137,376	-0,225187	22,510000	46,440000
1,634052	-246,551360	138,276	-0,232354	22,510000	46,440000
1,615980	-263,821549	139,180	-0,239228	22,510000	46,440000
1,598022	-280,958013	140,083	-0,246048	22,510000	46,455000
1,580028	-0,274812	140,985	-0,134336	22,510000	46,455000
1,561990	-0,199974	141,885	-0,134306	22,510000	46,465000
1,544065	0,224511	142,786	-0,134137	22,510000	46,465000
1,526087	-0,191387	143,688	-0,134303	22,510000	46,465000
1,508056	-0,424486	144,591	-0,134396	22,510000	46,465000
1,490039	0,066249	145,494	-0,134200	22,510000	46,425000
1,472103	0,099374	146,399	-0,134187	22,510000	46,425000
1,454049	-0,307936	147,304	-0,134349	22,510000	46,425000
1,436068	-0,175438	148,206	-0,134296	22,510000	46,425000
1,418053	-0,166850	149,110	-0,134293	22,510000	46,425000
1,400117	-0,083425	150,011	-0,134260	22,510000	46,425000
1,382043	-0,217150	150,914	-0,134313	22,510000	46,425000
1,368026	-0,100601	151,617	-0,134267	22,520000	46,415000