File: Nanoindentation Datenauswertung/data/test partial unload on saphire-2
Quasi static measurement routine
Tip parameters (shape,radius, material...)
09.05.2022

Piezo position[nm]	MEMS displ.[nm]	Time[ms]
eoh
2,819923	0,000000	0,00
2,831990	5,652965	0,25
2,843966	11,967330	0,55
2,855992	20,747514	0,85
2,867987	31,031383	1,15
2,879965	40,292081	1,46
2,891987	51,718972	1,76
2,904004	62,062766	2,06
2,915963	72,045898	2,36
2,927968	83,111017	2,66
2,939990	92,492676	2,96
2,951990	102,836470	3,26
2,963997	114,383212	3,56
2,975992	125,328480	3,87
2,987935	135,130726	4,17
2,999978	147,159091	4,47
3,011948	157,562811	4,77
3,024005	167,785645	5,07
3,035948	179,092685	5,37
3,047904	189,436479	5,67
3,059945	201,283958	5,97
3,071921	213,492099	6,28
3,083938	224,677069	6,58
3,095930	237,366832	6,88
3,107918	249,815785	7,18
3,119963	261,061790	7,48
3,131861	274,051181	7,78
3,143915	285,657848	8,08
3,151911	298,286577	8,38
3,151893	298,407537	8,68
3,151914	298,768200	8,98
3,151911	298,226651	9,29
3,151880	298,106800	9,59
3,151923	297,445401	9,89
3,151850	297,986950	10,19
3,151899	297,925914	10,49
3,151950	297,746138	10,79
3,151864	298,226651	11,09
3,151876	297,625178	11,39
3,151937	297,925914	11,70
3,151924	297,505327	12,00
3,151918	297,746138	12,30
3,151851	297,925914	12,60
3,151891	298,106800	12,90
3,151920	298,647239	13,20
3,143988	293,836559	13,50
3,131876	280,726207	13,80
3,119890	268,518066	14,10
3,107897	256,972434	14,40
3,095925	243,561346	14,70
3,083909	231,773793	15,00
3,071964	219,565652	15,30
3,071922	211,327015	15,58
3,083919	223,774858	15,88
3,095962	236,284846	16,18
3,107943	249,093350	16,48
3,119922	260,820978	16,78
3,131977	272,186834	17,08
3,143918	284,816673	17,38
3,155954	296,724077	17,68
3,167942	308,571555	17,98
3,179928	320,778587	18,29
3,191907	333,468350	18,59
3,203899	345,015092	18,89
3,215895	357,403010	19,19
3,227944	370,814098	19,49
3,239934	383,022239	19,79
3,251945	395,891779	20,09
3,263912	408,761319	20,39
3,275910	421,511009	20,69
3,287864	435,342685	20,99
3,299926	448,273260	21,29
3,311910	461,503462	21,59
3,323848	474,492853	21,89
3,335933	487,302468	22,19
3,347881	499,631570	22,49
3,359908	513,944869	22,79
3,371833	526,272860	23,09
3,383863	539,984686	23,39
3,395871	553,034002	23,70
3,407824	565,182218	24,00
3,419861	578,834118	24,30
3,431813	591,944469	24,60
3,443875	604,513272	24,90
3,455844	617,562589	25,20
3,467877	630,853826	25,50
3,479870	643,723366	25,80
3,483863	652,202814	26,11
3,483827	652,563477	26,41
3,483819	652,262740	26,71
3,483825	652,503551	27,01
3,483800	652,503551	27,31
3,483842	652,563477	27,61
3,483913	652,443626	27,91
3,483791	652,503551	28,21
3,483862	652,082963	28,52
3,483865	652,623402	28,82
3,483830	652,262740	29,11
3,483842	652,142889	29,41
3,483887	652,383700	29,71
3,483837	651,963113	30,02
3,483841	652,864213	30,32
3,483830	652,082963	30,62
3,483842	652,082963	30,92
3,471881	643,542480	31,22
3,459865	630,613015	31,52
3,447825	617,082076	31,82
3,435850	603,911799	32,12
3,423845	590,801447	32,42
3,411815	577,991832	32,73
3,399838	564,941406	33,03
3,387906	551,831055	33,33
3,375884	538,240190	33,63
3,363879	524,948952	33,93
3,351853	511,479048	34,23
3,339845	498,428622	34,53
3,327858	485,919744	34,83
3,315934	472,749467	35,13
3,323871	472,809393	35,39
3,335916	485,859819	35,69
3,347854	498,308771	35,99
3,359897	511,418013	36,29
3,371830	525,009988	36,59
3,383875	538,180265	36,89
3,395928	551,410467	37,19
3,407818	564,640669	37,49
3,419812	577,691096	37,79
3,431893	590,620561	38,09
3,443834	603,611062	38,39
3,455831	617,382812	38,69
3,467866	630,613015	38,99
3,479841	643,362704	39,29
3,491871	656,712757	39,60
3,503779	669,583407	39,90
3,515840	682,692649	40,20
3,527856	696,224698	40,50
3,539771	708,974387	40,80
3,551854	721,963778	41,10
3,563914	735,134055	41,40
3,575879	748,364258	41,70
3,587818	761,535645	42,00
3,599863	774,885698	42,30
3,611793	787,695312	42,60
3,623894	800,383967	42,91
3,635835	814,216752	43,20
3,647828	827,627841	43,51
3,659826	839,955833	43,81
3,671800	853,186035	44,11
3,683859	866,296387	44,41
3,695814	879,046076	44,71
3,707845	892,636941	45,01
3,719814	905,747292	45,31
3,731835	918,857644	45,61
3,743831	931,306596	45,91
3,755902	945,498935	46,21
3,767849	957,647150	46,51
3,779892	970,817427	46,82
3,791836	984,348366	47,12
3,803822	997,579679	47,42
3,815851	1010,389293	47,72
3,815802	1014,718350	48,02
3,815802	1014,538574	48,32
3,815772	1014,357688	48,62
3,815753	1014,116877	48,92
3,815828	1014,718350	49,22
3,815839	1014,658425	49,52
3,815752	1014,778276	49,82
3,815833	1014,839311	50,12
3,815845	1014,778276	50,43
3,815921	1014,297763	50,73
3,815768	1013,997026	51,03
3,815832	1014,297763	51,33
3,815811	1014,417614	51,63
3,815798	1014,297763	51,93
3,815817	1014,538574	52,23
3,815820	1014,778276	52,53
3,811844	1014,357688	52,83
3,799832	1001,488148	53,13
3,787837	988,077060	53,43
3,775810	974,966708	53,73
3,763771	962,037243	54,03
3,751832	948,986816	54,34
3,739798	935,095215	54,64
3,727863	922,706188	54,94
3,715798	909,776722	55,24
3,703882	896,425559	55,54
3,691830	883,135431	55,84
3,679823	869,784268	56,14
3,667745	856,734952	56,44
3,655831	843,744451	56,74
3,643860	830,333363	57,04
3,631820	817,282937	57,34
3,619837	803,932884	57,64
3,607807	790,521795	57,95
3,595842	777,772106	58,25
3,583831	764,902566	58,55
3,571769	751,853249	58,85
3,559845	738,862749	59,15
3,547814	725,090998	59,45
3,535821	712,161532	59,75
3,523789	698,930220	60,05
3,511829	685,820978	60,35
3,499815	672,710627	60,65
3,487881	659,780051	60,95
3,475825	646,670810	61,25
3,463855	633,439498	61,55
3,451860	620,450107	61,85
3,439829	606,256658	62,16
3,427819	594,048517	62,45
3,415838	580,637429	62,76
3,403857	567,227450	63,05
3,391893	554,718572	63,35
3,379905	542,028809	63,66
3,367913	528,016246	63,96
3,355875	514,726119	64,26
3,343827	501,736728	64,56
3,331918	489,407626	64,86
3,319903	475,034402	65,16
3,307906	463,067072	65,47
3,295946	450,076571	65,77
3,283845	437,147106	66,07
3,271922	423,375355	66,37
3,259879	410,265004	66,67
3,247922	397,335538	66,97
3,235882	385,127397	67,27
3,223865	371,596458	67,57
3,211895	359,327282	67,87
3,199913	345,857377	68,17
3,188001	332,806951	68,47
3,175945	320,538885	68,78
3,163877	309,352805	69,08
3,151836	296,784002	69,38
3,139963	283,914462	69,68
3,127887	272,066983	69,98
3,115906	260,820978	70,28
3,103962	249,033425	70,58
3,091899	236,284846	70,88
3,079891	223,895819	71,18
3,067929	212,048340	71,48
3,055970	199,720348	71,79
3,043966	187,512207	72,09
3,031925	175,844505	72,39
3,019981	163,937100	72,69
3,007947	153,352495	72,99
2,995905	143,008700	73,29
2,983907	131,402033	73,59
2,971946	120,697576	73,89
2,959983	110,534668	74,19
2,947956	99,950062	74,49
2,935937	89,064719	74,79
2,923945	79,502175	75,09
2,911944	69,580078	75,39
2,899976	59,596946	75,69
2,888009	48,952415	76,00
2,875972	38,909357	76,30
2,863909	28,264826	76,60
2,851941	19,303755	76,90
2,840012	10,824308	77,20
2,827978	3,006259	77,50
2,819907	-0,301847	77,70