File: Nanoindentation Datenauswertung/data/MEMS Dynamik/test-1, 5nm, 25nms,0,2um
Quasi static measurement routine
Tip parameters (shape,radius, material...)
15.07.2022

Piezo position[nm]	MEMS displ.[nm]	Time[ms]	Cap [pf]
eoh
2,806015	-0,897807	0,185	-0,092534
2,811064	0,748173	0,385	-0,091820
2,816006	6,297028	0,586	-0,089412
2,821065	10,198778	0,786	-0,087718
2,826022	11,844758	0,986	-0,087004
2,831043	14,772195	1,186	-0,085733
2,836026	17,027965	1,386	-0,084754
2,841064	20,624820	1,586	-0,083193
2,846056	23,306992	1,787	-0,082029
2,851022	25,746148	1,987	-0,080971
2,856051	28,367566	2,187	-0,079833
2,861001	30,257686	2,387	-0,079013
2,866094	32,818350	2,587	-0,077901
2,871042	35,318260	2,787	-0,076816
2,876026	38,488713	2,987	-0,075440
2,881043	40,744483	3,187	-0,074461
2,886051	44,098322	3,387	-0,073006
2,891089	46,536353	3,587	-0,071948
2,896029	49,401912	3,788	-0,070704
2,901085	51,963701	3,988	-0,069592
2,906016	54,219470	4,188	-0,068613
2,911076	55,865450	4,388	-0,067899
2,916030	57,998587	4,588	-0,066973
2,921060	59,645692	4,788	-0,066258
2,926060	61,352427	4,988	-0,065518
2,931097	65,011161	5,188	-0,063930
2,936023	67,937473	5,389	-0,062660
2,941077	69,949102	5,589	-0,061787
2,946054	72,693152	5,789	-0,060596
2,951042	76,229254	5,989	-0,059061
2,956024	78,485023	6,189	-0,058082
2,960990	80,375144	6,389	-0,057262
2,966011	83,301456	6,589	-0,055992
2,971043	86,289648	6,789	-0,054695
2,976017	89,155206	6,989	-0,053451
2,981040	92,447167	7,189	-0,052022
2,986009	95,922514	7,389	-0,050514
2,991036	98,056776	7,589	-0,049588
2,996038	101,532123	7,790	-0,048080
3,000997	104,763330	7,990	-0,046677
3,006026	107,079853	8,190	-0,045672
3,006019	107,141732	8,390	-0,045645
3,006053	107,079853	8,425	-0,045672
3,006048	105,738767	8,626	-0,046254
3,005982	105,189732	8,827	-0,046492
3,006089	105,128978	9,027	-0,046519
3,006019	104,335802	9,228	-0,046863
3,005977	104,214295	9,428	-0,046916
3,005997	104,397681	9,628	-0,046836
3,006009	103,666385	9,828	-0,047153
3,006018	102,751701	10,028	-0,047550
3,006009	102,324174	10,228	-0,047736
3,006081	102,873209	10,428	-0,047498
3,006070	101,958525	10,629	-0,047895
3,005983	101,714385	10,829	-0,048000
3,006087	101,592877	11,029	-0,048053
3,005993	101,592877	11,230	-0,048053
3,006011	102,202666	11,430	-0,047789
3,006076	101,592877	11,631	-0,048053
3,006008	101,409490	11,831	-0,048133
3,006024	101,348736	12,031	-0,048159
3,006054	101,532123	12,231	-0,048080
3,006018	101,592877	12,432	-0,048053
3,005967	101,592877	12,632	-0,048053
3,006025	101,287982	12,832	-0,048186
3,006013	101,227229	13,033	-0,048212
3,006034	100,922334	13,233	-0,048344
3,006057	101,104596	13,434	-0,048265
3,000975	98,178283	13,466	-0,049535
2,996006	93,971639	13,667	-0,051361
2,991001	90,374784	13,867	-0,052922
2,985982	87,081698	14,067	-0,054351
2,981024	83,301456	14,267	-0,055992
2,975958	79,583093	14,467	-0,057605
2,971017	76,960550	14,668	-0,058744
2,966017	73,058801	14,868	-0,060437
2,960993	69,217805	15,068	-0,062104
2,956018	65,681704	15,268	-0,063639
2,951034	62,572005	15,468	-0,064988
2,946033	58,426114	15,669	-0,066788
2,941011	54,585118	15,869	-0,068455
2,936054	51,657681	16,069	-0,069725
2,931056	48,060826	16,269	-0,071286
2,925974	44,585478	16,469	-0,072794
2,921022	40,744483	16,669	-0,074461
2,916008	37,208381	16,869	-0,075996
2,911013	33,793788	17,069	-0,077478
2,906060	30,441073	17,269	-0,078933
2,900988	26,538198	17,469	-0,080627
2,896040	23,306992	17,669	-0,082029
2,891059	20,503312	17,869	-0,083246
2,886016	17,149473	18,069	-0,084702
2,880983	15,564246	18,269	-0,085390
2,876011	14,649563	18,469	-0,085787
2,870988	11,905512	18,670	-0,086978
2,866073	11,784004	18,870	-0,087030
2,861052	9,710496	19,070	-0,087930
2,856058	8,857692	19,270	-0,088300
2,851039	7,149833	19,470	-0,089042
2,846037	5,443098	19,670	-0,089782
2,841070	3,918626	19,870	-0,090444
2,836017	3,064696	20,070	-0,090814
2,831060	2,272645	20,270	-0,091158
2,825998	0,261017	20,470	-0,092031
2,821034	-1,324210	20,670	-0,092719
2,816016	-2,910561	20,870	-0,093408
2,811028	-3,763366	21,070	-0,093778
2,805991	-5,104452	21,270	-0,094360