File: Nanoindentation Datenauswertung/data/MEMS Dynamik/test-2,10nm,200nms,0,2um
Quasi static measurement routine
Tip parameters (shape,radius, material...)
15.07.2022

Piezo position[nm]	MEMS displ.[nm]	Time[ms]	Cap [pf]
eoh
2,804018	-0,183387	0,205	-0,094016
2,814003	6,645800	0,255	-0,091052
2,823989	13,778757	0,305	-0,087957
2,833989	20,303049	0,355	-0,085125
2,843952	25,363623	0,405	-0,082929
2,853935	31,155494	0,455	-0,080415
2,863946	35,911173	0,506	-0,078351
2,873961	41,337396	0,556	-0,075996
2,884025	47,007758	0,606	-0,073535
2,893989	52,738875	0,656	-0,071048
2,904047	58,043590	0,707	-0,068746
2,914058	62,127601	0,757	-0,066973
2,924019	65,725581	0,808	-0,065412
2,933984	69,810718	0,859	-0,063639
2,943961	75,663342	0,910	-0,061099
2,953974	80,297514	0,962	-0,059087
2,964012	86,881435	1,024	-0,056230
2,973974	92,064642	1,074	-0,053980
2,983954	97,246724	1,124	-0,051731
2,994024	104,015157	1,174	-0,048794
3,003990	108,831590	1,225	-0,046704
3,003979	106,574696	1,276	-0,047683
3,003965	104,928715	1,327	-0,048397
3,003910	104,318926	1,377	-0,048662
3,003928	104,623821	1,427	-0,048530
3,003935	104,380805	1,477	-0,048635
3,003952	104,015157	1,527	-0,048794
3,003949	103,892524	1,578	-0,048847
3,003885	103,771016	1,628	-0,048900
3,003943	104,136665	1,678	-0,048741
3,003882	102,917087	1,729	-0,049271
3,003951	103,282735	1,780	-0,049112
3,003976	103,953278	1,831	-0,048821
3,003939	102,795579	1,881	-0,049323
3,003950	103,526876	1,932	-0,049006
3,003943	102,551438	1,984	-0,049429
3,004015	103,649509	2,034	-0,048953
3,003879	102,551438	2,085	-0,049429
3,003960	102,795579	2,135	-0,049323
3,004027	102,429931	2,185	-0,049482
3,003924	102,490684	2,235	-0,049456
3,003975	103,039720	2,285	-0,049217
3,004008	102,307298	2,335	-0,049535
3,003900	102,307298	2,385	-0,049535
3,003991	101,820141	2,435	-0,049747
3,003982	101,820141	2,486	-0,049747
3,003930	102,490684	2,536	-0,049456
3,003930	102,551438	2,586	-0,049429
3,003936	102,612192	2,636	-0,049403
3,003943	101,758263	2,686	-0,049773
3,004002	102,185790	2,736	-0,049588
3,003947	102,612192	2,786	-0,049403
3,003962	102,551438	2,836	-0,049429
3,003966	102,733700	2,886	-0,049350
3,003964	102,185790	2,936	-0,049588
3,003978	102,551438	2,986	-0,049429
3,003970	102,125036	3,036	-0,049614
3,003932	102,063157	3,086	-0,049641
3,003948	102,002403	3,137	-0,049667
3,003994	102,125036	3,187	-0,049614
3,003919	102,307298	3,237	-0,049535
3,003930	102,368052	3,287	-0,049509
3,003923	101,636755	3,337	-0,049826
3,003982	102,307298	3,387	-0,049535
3,003908	101,576001	3,437	-0,049853
3,003937	102,125036	3,487	-0,049614
3,003952	101,576001	3,537	-0,049853
3,003960	101,758263	3,587	-0,049773
3,003948	101,880895	3,637	-0,049720
3,003954	101,453368	3,687	-0,049906
3,003915	101,941649	3,737	-0,049694
3,003961	101,576001	3,788	-0,049853
3,003955	101,880895	3,839	-0,049720
3,003944	101,758263	3,889	-0,049773
3,003962	101,697509	3,940	-0,049800
3,003949	101,880895	3,990	-0,049720
3,003949	101,149599	4,041	-0,050038
3,003974	101,758263	4,092	-0,049773
3,003969	101,941649	4,142	-0,049694
3,004002	101,515247	4,200	-0,049879
3,003968	101,758263	4,250	-0,049773
3,003939	101,515247	4,300	-0,049879
3,003952	101,392614	4,350	-0,049932
3,003961	101,697509	4,400	-0,049800
3,003942	101,941649	4,451	-0,049694
3,003957	101,697509	4,503	-0,049800
3,003953	101,636755	4,553	-0,049826
3,003980	101,331860	4,603	-0,049958
3,003953	101,758263	4,653	-0,049773
3,003913	101,697509	4,703	-0,049800
3,003951	101,697509	4,753	-0,049800
3,003997	101,576001	4,803	-0,049853
3,003965	101,515247	4,853	-0,049879
3,003909	101,880895	4,904	-0,049720
3,003977	102,002403	4,955	-0,049667
3,003963	101,636755	5,005	-0,049826
3,003989	101,697509	5,055	-0,049800
3,003974	101,880895	5,105	-0,049720
3,003915	101,697509	5,155	-0,049800
3,003929	101,758263	5,205	-0,049773
3,003978	101,576001	5,255	-0,049853
3,003980	101,697509	5,305	-0,049800
3,003941	102,063157	5,358	-0,049641
3,003942	101,576001	5,408	-0,049853
3,003907	101,880895	5,459	-0,049720
3,003927	101,515247	5,509	-0,049879
3,004008	101,636755	5,560	-0,049826
3,003902	101,576001	5,610	-0,049853
3,003949	101,941649	5,660	-0,049694
3,003967	101,392614	5,711	-0,049932
3,003952	102,125036	5,762	-0,049614
3,004011	101,820141	5,813	-0,049747
3,003956	101,941649	5,863	-0,049694
3,003970	101,880895	5,913	-0,049720
3,003914	101,941649	5,963	-0,049694
3,003981	101,453368	6,013	-0,049906
3,004002	101,149599	6,063	-0,050038
3,004004	101,636755	6,113	-0,049826
3,003970	101,026966	6,163	-0,050091
3,003980	101,453368	6,213	-0,049906
3,003959	101,576001	6,264	-0,049853
3,003992	101,392614	6,314	-0,049932
2,993943	94,625306	6,353	-0,052869
2,983986	87,613857	6,403	-0,055912
2,973936	80,663162	6,453	-0,058929
2,964011	72,614397	6,504	-0,062422
2,953982	65,847089	6,555	-0,065359
2,943972	58,835640	6,606	-0,068402
2,934033	51,945700	6,656	-0,071392
2,923959	44,751989	6,706	-0,074514
2,914037	37,740540	6,757	-0,077557
2,903995	30,850599	6,807	-0,080547
2,893987	24,448940	6,858	-0,083326
2,884018	20,119663	6,908	-0,085205
2,873927	18,595190	6,958	-0,085866
2,864009	15,608124	7,008	-0,087163
2,853923	12,132776	7,059	-0,088671
2,843936	9,388726	7,109	-0,089862
2,833986	6,583921	7,159	-0,091079
2,823982	3,718363	7,210	-0,092323
2,813928	0,549035	7,261	-0,093698
2,803946	-2,316523	7,311	-0,094942