File: Nanoindentation Datenauswertung/data/S_calib/S_calib_0509-3
Quasi static measurement routine
Tip parameters (shape,radius, material...)
05.09.2022

Piezo position[nm]	MEMS displ.[nm]	Time[ms]	Cap [pf]	Temp [°C]	Rh [%]
eoh
1,935986	-0,024472	0,196	-0,069632	94,160000	0,000000
1,948006	10,040647	0,797	-0,065415	94,160000	0,000000
1,959986	22,293127	1,398	-0,060281	94,160000	0,000000
1,971966	34,511812	2,001	-0,055162	94,160000	0,000000
1,983986	48,374804	2,601	-0,049353	94,160000	0,000000
1,995921	58,344365	3,203	-0,045176	94,160000	0,000000
2,007961	72,435766	3,804	-0,039271	94,160000	0,000000
2,019971	84,371271	4,407	-0,034271	94,160000	0,000000
2,031981	96,607436	5,010	-0,029144	94,110000	0,000000
2,043987	107,319324	5,613	-0,024655	94,110000	0,000000
2,056003	118,742076	6,216	-0,019869	94,110000	0,000000
2,067919	132,210015	6,818	-0,014226	94,170000	0,000000
2,079986	142,875289	7,420	-0,009757	94,170000	0,000000
2,091963	157,289491	8,022	-0,003718	94,170000	0,000000
2,103906	168,798479	8,624	0,001104	94,080000	0,000000
2,115898	181,105730	9,224	0,006261	94,080000	0,000000
2,127918	193,223029	9,825	0,011338	94,080000	0,000000
2,140015	204,108555	10,429	0,015899	94,080000	0,000000
2,151993	215,413606	11,030	0,020636	94,160000	0,000000
2,163962	229,315054	11,633	0,026461	94,160000	0,000000
2,175995	238,835956	12,234	0,030450	94,160000	0,000000
2,187967	252,587075	12,835	0,036212	94,130000	0,000000
2,199934	263,497073	13,436	0,040783	94,130000	0,000000
2,211980	275,669143	14,037	0,045883	94,130000	0,000000
2,223962	289,585742	14,639	0,051714	94,130000	0,000000
2,235981	300,945564	15,240	0,056474	94,130000	0,000000
2,247981	313,781884	15,842	0,061853	94,130000	0,000000
2,259977	324,169805	16,443	0,066205	94,130000	0,000000
2,271921	336,422285	17,044	0,071339	94,130000	0,000000
2,284038	348,215618	17,645	0,076280	94,130000	0,000000
2,295992	360,238524	18,245	0,081318	94,130000	0,000000
2,307918	373,824163	18,848	0,087010	94,130000	0,000000
2,319940	383,928904	19,449	0,091244	94,130000	0,000000
2,331990	397,775582	20,051	0,097046	94,130000	0,000000
2,343917	410,066518	20,653	0,102196	94,130000	0,000000
2,355964	421,615127	21,256	0,107035	94,110000	0,000000
2,367935	432,974950	21,857	0,111794	94,110000	0,000000
2,379982	444,500252	22,460	0,116624	94,110000	0,000000
2,391982	456,072168	23,062	0,121472	94,180000	0,000000
2,403948	470,006246	23,662	0,127311	94,180000	0,000000
2,415941	480,000280	24,263	0,131498	94,180000	0,000000
2,427989	492,061642	24,865	0,136552	94,180000	0,000000
2,439929	506,295216	25,467	0,142516	94,180000	0,000000
2,451974	518,025619	26,069	0,147431	94,180000	0,000000
2,463968	529,542764	26,672	0,152256	94,170000	0,000000
2,475948	540,397990	27,274	0,156805	94,170000	0,000000
2,487983	553,651505	27,874	0,162358	94,170000	0,000000
2,499949	564,253850	28,476	0,166800	94,170000	0,000000
2,511915	576,007561	29,079	0,171725	94,160000	0,000000
2,523945	588,275190	29,679	0,176865	94,160000	0,000000
2,535928	600,092995	30,281	0,181817	94,160000	0,000000
2,548001	614,009593	30,883	0,187648	94,130000	0,000000
2,559937	623,545644	31,485	0,191644	94,130000	0,000000
2,571949	636,097619	32,089	0,196903	94,130000	0,000000
2,583994	648,049439	32,689	0,201911	94,130000	0,000000
2,595941	661,089695	33,290	0,207375	94,130000	0,000000
2,607937	672,860885	33,893	0,212307	94,130000	0,000000
2,619993	683,746411	34,495	0,216868	94,130000	0,000000
2,631986	697,900740	35,098	0,222798	94,110000	0,000000
2,643926	709,970260	35,700	0,227855	94,110000	0,000000
2,655937	719,703256	36,301	0,231934	94,110000	0,000000
2,667998	731,765783	36,903	0,236988	94,110000	0,000000
2,679974	744,980842	37,504	0,242525	94,110000	0,000000
2,691956	757,279935	38,105	0,247678	94,110000	0,000000
2,703949	769,129205	38,707	0,252643	94,110000	0,000000
2,715939	780,598570	39,309	0,257449	94,110000	0,000000
2,727964	791,880314	39,911	0,262176	94,110000	0,000000
2,739912	803,673646	40,511	0,267117	94,130000	0,000000
2,751968	815,663923	41,112	0,272141	94,130000	0,000000
2,763924	827,213697	41,715	0,276980	94,130000	0,000000
2,775924	841,573128	42,318	0,282997	94,130000	0,000000
2,787967	851,621933	42,920	0,287208	94,080000	0,000000
2,799982	865,057242	43,523	0,292837	94,080000	0,000000
2,811907	875,833225	44,124	0,297352	94,080000	0,000000
2,823910	887,437770	44,727	0,302214	94,110000	0,000000
2,835937	899,728707	45,329	0,307364	94,110000	0,000000
2,847948	912,824899	45,931	0,312852	94,110000	0,000000
2,859949	923,726740	46,533	0,317419	94,170000	0,000000
2,871952	935,481615	47,134	0,322345	94,170000	0,000000
2,883994	949,358592	47,736	0,328159	94,170000	0,000000
2,895901	959,649789	48,339	0,332471	94,170000	0,000000
2,907912	972,582833	48,940	0,337890	94,130000	0,000000
2,919975	984,471724	49,541	0,342872	94,130000	0,000000
2,931981	995,405029	50,142	0,347453	94,130000	0,000000
2,935932	1001,736370	50,742	0,350105	94,080000	0,000000
2,935907	1001,048814	51,343	0,349817	94,080000	0,000000
2,923905	989,271797	51,944	0,344883	94,080000	0,000000
2,911927	979,056347	52,545	0,340603	94,080000	0,000000
2,899924	966,757253	53,149	0,335449	94,080000	0,000000
2,887905	954,742504	53,751	0,330415	94,080000	0,000000
2,875960	941,062472	54,354	0,324683	94,080000	0,000000
2,863919	929,457926	54,957	0,319821	94,080000	0,000000
2,851909	917,964089	55,557	0,315005	94,080000	0,000000
2,839914	906,209213	56,158	0,310080	94,080000	0,000000
2,827966	894,486967	56,761	0,305168	94,160000	0,000000
2,815945	882,179715	57,365	0,300011	94,160000	0,000000
2,803935	868,294582	57,967	0,294193	94,160000	0,000000
2,791949	858,300548	58,568	0,290006	94,160000	0,000000
2,779926	846,285800	59,169	0,284972	94,160000	0,000000
2,767966	832,819026	59,769	0,279329	94,160000	0,000000
2,755971	821,948650	60,372	0,274774	94,160000	0,000000
2,743944	807,794321	60,975	0,268844	94,190000	0,000000
2,731921	797,982082	61,577	0,264732	94,190000	0,000000
2,719944	785,871774	62,180	0,259658	94,190000	0,000000
2,707948	771,765224	62,781	0,253748	94,120000	0,000000
2,695923	761,850434	63,382	0,249593	94,120000	0,000000
2,683919	749,693513	63,984	0,244500	94,120000	0,000000
2,671941	736,218582	64,586	0,238854	94,140000	0,000000
2,659982	724,361156	65,190	0,233885	94,140000	0,000000
2,647970	713,530402	65,794	0,229347	94,140000	0,000000
2,635959	701,263938	66,396	0,224208	94,140000	0,000000
2,623980	689,414668	66,996	0,219243	94,160000	0,000000
2,611997	677,249590	67,599	0,214146	94,160000	0,000000
2,599980	664,824638	68,199	0,208939	94,160000	0,000000
2,587991	650,986118	68,802	0,203141	94,130000	0,000000
2,575929	639,105385	69,402	0,198163	94,130000	0,000000
2,563970	628,977336	70,003	0,193919	94,130000	0,000000
2,551972	614,996644	70,604	0,188062	94,130000	0,000000
2,539912	604,165890	71,208	0,183523	94,160000	0,000000
2,527980	592,561344	71,810	0,178661	94,160000	0,000000
2,515925	578,730982	72,411	0,172866	94,160000	0,000000
2,503974	568,619248	73,013	0,168629	94,210000	0,000000
2,491960	554,575626	73,615	0,162745	94,210000	0,000000
2,479959	544,604900	74,219	0,158567	94,210000	0,000000
2,467991	532,290657	74,822	0,153408	94,110000	0,000000
2,455955	520,638332	75,423	0,148525	94,110000	0,000000
2,443946	507,912720	76,024	0,143193	94,110000	0,000000
2,431981	496,514441	76,627	0,138417	94,130000	0,000000
2,419957	484,602243	77,227	0,133426	94,130000	0,000000
2,407944	472,437164	77,827	0,128329	94,130000	0,000000
2,395990	458,630109	78,428	0,122544	94,130000	0,000000
2,383975	447,579104	79,030	0,117914	94,130000	0,000000
2,372021	434,671698	79,632	0,112505	94,130000	0,000000
2,360005	422,238589	80,234	0,107296	94,130000	0,000000
2,347886	412,331957	80,837	0,103145	94,180000	0,000000
2,335936	399,171670	81,439	0,097631	94,180000	0,000000
2,323963	387,922556	82,042	0,092917	94,180000	0,000000
2,311960	376,058137	82,644	0,087946	94,180000	0,000000
2,299959	362,630985	83,247	0,082320	94,080000	0,000000
2,287976	351,373713	83,849	0,077604	94,080000	0,000000
2,275922	340,045355	84,450	0,072857	94,160000	0,000000
2,263918	326,578582	85,052	0,067214	94,160000	0,000000
2,252005	315,589340	85,655	0,062610	94,160000	0,000000
2,239994	303,764544	86,258	0,057655	94,160000	0,000000
2,227922	291,954896	86,861	0,052707	94,160000	0,000000
2,215956	279,915675	87,462	0,047663	94,160000	0,000000
2,203997	268,051257	88,064	0,042691	94,160000	0,000000
2,191963	254,030942	88,666	0,036817	94,180000	0,000000
2,179983	242,940315	89,268	0,032170	94,180000	0,000000
2,167959	230,427963	89,870	0,026927	94,180000	0,000000
2,155966	219,502815	90,472	0,022350	94,180000	0,000000
2,144004	207,086021	91,072	0,017147	94,160000	0,000000
2,131977	195,765821	91,674	0,012404	94,160000	0,000000
2,119981	183,521498	92,275	0,007273	94,160000	0,000000
2,107949	171,988039	92,877	0,002441	94,110000	0,000000
2,095943	158,205456	93,480	-0,003334	94,110000	0,000000
2,084004	146,261793	94,081	-0,008338	94,110000	0,000000
2,071995	135,958942	94,684	-0,012655	94,110000	0,000000
2,059946	122,002722	95,287	-0,018503	94,110000	0,000000
2,047974	111,945760	95,889	-0,022717	94,110000	0,000000
2,036026	98,130547	96,490	-0,028505	94,110000	0,000000
2,023955	88,200608	97,092	-0,032666	94,110000	0,000000
2,012000	74,401710	97,694	-0,038448	94,110000	0,000000
1,999964	64,242197	98,295	-0,042705	94,110000	0,000000
1,988021	50,529535	98,899	-0,048450	94,110000	0,000000
1,975995	38,665116	99,499	-0,053421	94,110000	0,000000
1,963938	26,941705	100,101	-0,058333	94,110000	0,000000
1,952027	15,495646	100,704	-0,063129	94,160000	0,000000
1,939914	2,754885	101,305	-0,068468	94,160000	0,000000
1,936008	-0,198109	101,505	-0,069705	94,160000	0,000000