File: Nanoindentation Datenauswertung/data/S_calib/S_calib_2408-1
Quasi static measurement routine
Tip parameters (shape,radius, material...)
24.08.2022

Piezo position[nm]	MEMS displ.[nm]	Time[ms]	Cap [pf]	Temp [°C]	Rh [%]
eoh
2,643969	-0,024537	0,161	-0,120533	22,350000	51,540000
2,663984	18,175595	1,166	-0,113290	22,350000	51,540000
2,683977	40,780072	2,169	-0,104293	22,360000	51,585000
2,703875	59,021916	3,173	-0,097033	22,360000	51,585000
2,723893	79,815582	4,175	-0,088757	22,360000	51,585000
2,743945	99,029081	5,181	-0,081110	22,360000	51,585000
2,763939	121,227475	6,186	-0,072275	22,350000	51,555000
2,783894	140,691249	7,191	-0,064528	22,350000	51,555000
2,803873	159,439777	8,194	-0,057066	22,350000	51,555000
2,823885	179,708356	9,198	-0,049000	22,350000	51,555000
2,843912	199,588028	10,199	-0,041087	22,350000	51,540000
2,863883	221,934870	11,202	-0,032193	22,350000	51,540000
2,883913	241,988752	12,206	-0,024212	22,350000	51,540000
2,903897	261,318801	13,209	-0,016519	22,350000	51,540000
2,923867	280,326192	14,212	-0,008954	22,350000	51,540000
2,943861	300,221812	15,217	-0,001035	22,350000	51,540000
2,963913	321,720909	16,222	0,007521	22,350000	51,525000
2,983870	340,237565	17,222	0,014891	22,350000	51,525000
3,003869	360,514732	18,225	0,022961	22,350000	51,565000
3,023824	381,216385	19,227	0,031201	22,350000	51,565000
3,043865	400,613909	20,230	0,038921	22,350000	51,565000
3,063838	422,703115	21,234	0,047712	22,350000	51,565000
3,083897	442,689522	22,237	0,055667	22,360000	51,585000
3,103824	462,036746	23,241	0,063367	22,360000	51,585000
3,123825	481,101798	24,245	0,070955	22,350000	51,555000
3,143861	500,706658	25,247	0,078758	22,350000	51,555000
3,163799	520,851327	26,251	0,086775	22,360000	51,560000
3,183805	542,832571	27,255	0,095524	22,360000	51,560000
3,203839	561,424064	28,257	0,102923	22,360000	51,560000
3,223852	580,821588	29,262	0,110644	22,360000	51,560000
3,243833	602,785657	30,268	0,119385	22,350000	51,565000
3,263840	620,644728	31,272	0,126493	22,350000	51,565000
3,283831	641,455569	32,279	0,134776	22,350000	51,580000
3,303788	662,813580	33,284	0,143276	22,350000	51,580000
3,323781	681,064011	34,288	0,150540	22,350000	51,515000
3,343835	703,036668	35,291	0,159285	22,350000	51,515000
3,363804	721,004927	36,295	0,166437	22,350000	51,525000
3,383826	741,240382	37,298	0,174490	22,350000	51,525000
3,403817	760,994916	38,302	0,182353	22,350000	51,540000
3,423836	780,773987	39,307	0,190225	22,350000	51,540000
3,443815	802,331972	40,310	0,198805	22,350000	51,540000
3,463786	822,767401	41,312	0,206938	22,350000	51,540000
3,483789	840,942996	42,314	0,214172	22,350000	51,565000
3,503775	862,808918	43,319	0,222875	22,350000	51,565000
3,523723	880,784538	44,321	0,230029	22,350000	51,565000
3,543803	902,749833	45,324	0,238771	22,350000	51,565000
3,563771	921,738821	46,329	0,246329	22,360000	51,570000
3,583777	941,103221	47,331	0,254036	22,360000	51,570000
3,603730	961,155877	48,333	0,262017	22,360000	51,570000
3,623750	982,821824	49,334	0,270640	22,360000	51,570000
3,643746	1000,565572	50,339	0,277702	22,360000	51,545000
3,663746	1020,710241	51,342	0,285719	22,360000	51,545000
3,683793	1042,658360	52,342	0,294455	22,360000	51,545000
3,703776	1061,498901	53,345	0,301953	22,360000	51,545000
3,723708	1082,881448	54,351	0,310463	22,360000	51,545000
3,743765	1101,032506	55,351	0,317688	22,360000	51,545000
3,763748	1121,110926	56,353	0,325679	22,350000	51,540000
3,783784	1142,801409	57,355	0,334312	22,350000	51,540000
3,803728	1160,693605	58,358	0,341433	22,350000	51,540000
3,823731	1180,722951	59,361	0,349404	22,350000	51,540000
3,843795	1200,609984	60,366	0,357319	22,350000	51,555000
3,863780	1222,417017	61,370	0,365999	22,350000	51,555000
3,883781	1240,791359	62,371	0,373312	22,350000	51,565000
3,903734	1262,648693	63,372	0,382011	22,350000	51,565000
3,923773	1281,214422	64,375	0,389400	22,350000	51,555000
3,943714	1301,209416	65,379	0,397358	22,350000	51,555000
3,963719	1320,357893	66,384	0,404979	22,340000	51,540000
3,983740	1342,323188	67,386	0,413721	22,350000	51,555000
4,003729	1362,509569	68,388	0,421755	22,350000	51,555000
4,023711	1380,908448	69,390	0,429078	22,350000	51,555000
4,043687	1400,912031	70,392	0,437040	22,350000	51,555000
4,063687	1420,483766	71,393	0,444829	22,350000	51,565000
4,083700	1440,421100	72,396	0,452764	22,350000	51,565000
4,103679	1462,003622	73,402	0,461354	22,350000	51,565000
4,123704	1481,998616	74,407	0,469312	22,350000	51,565000
4,143708	1500,008588	75,410	0,476480	22,350000	51,565000
4,143714	1501,869700	76,413	0,477221	22,350000	51,565000
4,143668	1501,304128	77,417	0,476996	22,360000	51,560000
4,143676	1501,420678	78,418	0,477042	22,360000	51,560000
4,143690	1500,731195	79,419	0,476768	22,350000	51,555000
4,143676	1500,614645	80,421	0,476721	22,350000	51,555000
4,143658	1500,456383	81,424	0,476658	22,350000	51,555000
4,143646	1500,381546	82,426	0,476628	22,350000	51,555000
4,143678	1500,341061	83,428	0,476612	22,350000	51,540000
4,143689	1499,867502	84,430	0,476424	22,350000	51,540000
4,143701	1499,460192	85,431	0,476262	22,360000	51,530000
4,123684	1481,026961	86,435	0,468925	22,360000	51,530000
4,103690	1458,572158	87,436	0,459988	22,350000	51,555000
4,083694	1438,335476	88,438	0,451934	22,350000	51,555000
4,063694	1418,922003	89,441	0,444208	22,350000	51,555000
4,043755	1398,253474	90,442	0,435981	22,350000	51,555000
4,023755	1378,805649	91,444	0,428241	22,350000	51,540000
4,003694	1358,694105	92,445	0,420237	22,350000	51,540000
3,983713	1338,533488	93,450	0,412213	22,360000	51,560000
3,963704	1316,194007	94,453	0,403322	22,360000	51,560000
3,943688	1296,721645	95,453	0,395572	22,350000	51,515000
3,923754	1275,821245	96,454	0,387253	22,350000	51,515000
3,903766	1257,603938	97,456	0,380003	22,350000	51,555000
3,883729	1236,919461	98,459	0,371771	22,350000	51,555000
3,863734	1216,915878	99,461	0,363809	22,340000	51,565000
3,843725	1194,933407	100,464	0,355060	22,340000	51,565000
3,823724	1176,675614	101,467	0,347793	22,350000	51,540000
3,803787	1154,095674	102,469	0,338807	22,350000	51,540000
3,783751	1134,972961	103,472	0,331196	22,350000	51,540000
3,763744	1115,850247	104,479	0,323585	22,350000	51,540000
3,743741	1094,043214	105,482	0,314906	22,350000	51,540000
3,723694	1073,980744	106,486	0,306921	22,350000	51,540000
3,703767	1055,722951	107,490	0,299654	22,350000	51,540000
3,683765	1035,743905	108,496	0,291703	22,350000	51,540000
3,663819	1015,440974	109,498	0,283622	22,350000	51,540000
3,643809	995,188344	110,500	0,275562	22,350000	51,540000
3,623753	974,137043	111,508	0,267183	22,350000	51,580000
3,603814	954,857294	112,509	0,259510	22,350000	51,580000
3,583807	933,207296	113,511	0,250893	22,360000	51,570000
3,563799	912,888417	114,514	0,242806	22,360000	51,570000
3,543787	895,053883	115,517	0,235708	22,350000	51,540000
3,523794	872,839539	116,518	0,226867	22,350000	51,540000
3,503791	854,663945	117,519	0,219633	22,350000	51,555000
3,483818	833,213921	118,521	0,211096	22,350000	51,555000
3,463791	813,692486	119,523	0,203326	22,340000	51,540000
3,443745	794,261837	120,526	0,195593	22,340000	51,540000
3,423791	774,167468	121,527	0,187595	22,340000	51,540000
3,403843	754,712282	122,530	0,179852	22,340000	51,540000
3,383782	733,063511	123,530	0,171236	22,360000	51,560000
3,363829	712,553245	124,536	0,163073	22,360000	51,560000
3,343790	693,105420	125,539	0,155333	22,350000	51,580000
3,323795	673,808496	126,540	0,147652	22,350000	51,580000
3,303799	654,128798	127,543	0,139820	22,350000	51,555000
3,283845	634,457689	128,547	0,131991	22,350000	51,555000
3,263864	613,954784	129,549	0,123831	22,360000	51,560000
3,243866	592,297425	130,553	0,115211	22,360000	51,560000
3,223826	573,773408	131,556	0,107838	22,350000	51,540000
3,203843	553,362516	132,557	0,099715	22,350000	51,540000
3,183841	533,940454	133,559	0,091985	22,360000	51,545000
3,163880	514,219044	134,561	0,084136	22,360000	51,545000
3,143892	493,908753	135,562	0,076052	22,360000	51,545000
3,123872	473,995956	136,565	0,068127	22,360000	51,545000
3,103792	452,728732	137,568	0,059663	22,350000	51,540000
3,083855	432,975424	138,569	0,051801	22,350000	51,540000
3,063852	414,044097	139,573	0,044266	22,360000	51,570000
3,043852	394,479723	140,576	0,036479	22,360000	51,570000
3,023836	374,260217	141,577	0,028432	22,350000	51,540000
3,003916	352,171011	142,580	0,019641	22,350000	51,540000
2,983908	332,956285	143,585	0,011993	22,350000	51,515000
2,963850	313,542812	144,587	0,004267	22,350000	51,515000
2,943946	294,677734	145,589	-0,003242	22,350000	51,515000
2,923900	272,630241	146,595	-0,012017	22,350000	51,515000
2,903867	254,604320	147,597	-0,019191	22,350000	51,525000
2,883891	234,534489	148,603	-0,027179	22,350000	51,525000
2,863895	214,788542	149,608	-0,035038	22,350000	51,540000
2,843894	193,347107	150,612	-0,043571	22,350000	51,540000
2,823941	175,636483	151,615	-0,050620	22,350000	51,540000
2,803896	154,518933	152,618	-0,059025	22,350000	51,540000
2,783883	135,047798	153,623	-0,066774	22,360000	51,560000
2,763913	113,381851	154,626	-0,075397	22,360000	51,560000
2,743942	93,827291	155,629	-0,083180	22,350000	51,540000
2,723901	73,931670	156,633	-0,091099	22,350000	51,540000
2,703891	54,060586	157,634	-0,099007	22,350000	51,540000
2,683909	35,220046	158,638	-0,106506	22,350000	51,540000
2,663917	15,266764	159,641	-0,114447	22,340000	51,525000
2,643934	-5,102416	160,646	-0,122554	22,340000	51,525000