File: Nanoindentation Datenauswertung/data/S_calib/S_calib_2308-3x3
Quasi static measurement routine
Tip parameters (shape,radius, material...)
23.08.2022

Piezo position[nm]	MEMS displ.[nm]	Time[ms]	Cap [pf]	Temp [°C]	Rh [%]
eoh

X-Pos [um]	Y-Pos [um]
0,000242	0,000000

POC
2,591967
2,206840	0,230138	0,910	-0,134578	22,340000	51,645000
2,222895	0,007306	1,714	-0,134667	22,340000	51,645000
2,238867	0,131507	2,518	-0,134617	22,340000	51,645000
2,254818	0,157078	3,320	-0,134607	22,340000	51,645000
2,270848	0,122984	4,129	-0,134621	22,340000	51,645000
2,286849	0,000000	4,931	-0,134670	22,340000	51,645000
2,302840	0,041400	5,736	-0,134653	22,340000	51,645000
2,318861	0,271538	6,537	-0,134561	22,340000	51,620000
2,334837	0,263014	7,341	-0,134564	22,340000	51,620000
2,350811	0,189955	8,149	-0,134594	22,340000	51,620000
2,366834	0,098630	8,956	-0,134630	22,340000	51,655000
2,382866	0,148554	9,764	-0,134610	22,340000	51,655000
2,398852	-0,082801	10,566	-0,134703	22,350000	51,630000
2,414829	-0,041400	11,387	-0,134687	22,350000	51,630000
2,430841	-0,124201	12,192	-0,134720	22,350000	51,630000
2,446870	-0,074277	12,996	-0,134700	22,350000	51,630000
2,462861	-0,041400	13,797	-0,134687	22,350000	51,630000
2,478857	0,122984	14,603	-0,134621	22,350000	51,630000
2,494792	-0,024353	15,427	-0,134680	22,350000	51,630000
2,510862	-0,255708	16,231	-0,134772	22,350000	51,655000
2,526802	-0,140031	17,035	-0,134726	22,350000	51,655000
2,542746	-0,157078	17,842	-0,134733	22,350000	51,655000
2,558889	-0,487064	18,655	-0,134865	22,350000	51,620000
2,574862	-1,658452	19,462	-0,135335	22,350000	51,620000
2,590803	4,148564	20,283	-0,133006	22,350000	51,630000
2,606881	18,806743	21,093	-0,127128	22,350000	51,630000
2,622810	34,890800	21,896	-0,120679	22,350000	51,630000
2,638863	50,594948	22,700	-0,114381	22,350000	51,655000
2,654848	65,945975	23,503	-0,108226	22,350000	51,655000
2,670803	81,527139	24,325	-0,101978	22,350000	51,630000
2,686816	97,116827	25,136	-0,095726	22,350000	51,630000
2,702866	112,540913	25,947	-0,089541	22,350000	51,630000
2,718821	129,211882	26,753	-0,082856	22,350000	51,630000
2,734841	143,993045	27,557	-0,076929	22,350000	51,630000
2,750807	160,134332	28,371	-0,070456	22,340000	51,645000
2,766786	175,708190	29,182	-0,064211	22,340000	51,645000
2,782840	192,493619	29,987	-0,057480	22,340000	51,645000
2,798837	207,497613	30,801	-0,051463	22,340000	51,645000
2,814773	223,755796	31,614	-0,044944	22,340000	51,645000
2,830805	239,105605	32,418	-0,038789	22,340000	51,655000
2,846801	254,645369	33,222	-0,032557	22,340000	51,655000
2,862867	270,639320	34,027	-0,026144	22,340000	51,655000
2,878799	286,773301	34,833	-0,019674	22,340000	51,655000
2,894828	302,552944	35,637	-0,013346	22,340000	51,655000
2,910813	317,985554	36,440	-0,007158	22,350000	51,630000
2,926831	334,020905	37,245	-0,000728	22,350000	51,630000
2,942779	350,574979	38,050	0,005911	22,350000	51,630000
2,958775	365,670297	38,852	0,011964	22,350000	51,645000
2,974871	381,663030	39,658	0,018377	22,350000	51,645000
2,990821	397,904165	40,465	0,024890	22,350000	51,630000
3,006756	413,716685	41,270	0,031230	22,350000	51,630000
3,022742	429,199219	42,072	0,037439	22,350000	51,630000
3,038840	446,190432	42,878	0,044252	22,350000	51,630000
3,054837	462,127153	43,682	0,050643	22,350000	51,630000
3,070790	476,742714	44,495	0,056504	22,350000	51,620000
3,086791	492,646557	45,309	0,062881	22,350000	51,620000
3,102760	508,343399	46,129	0,069176	22,350000	51,620000
3,118760	525,640245	46,940	0,076112	22,350000	51,620000
3,134742	540,305730	47,753	0,081993	22,350000	51,620000
3,150760	556,736820	48,556	0,088582	22,340000	51,645000
3,166775	572,772171	49,364	0,095012	22,340000	51,645000
3,182755	588,146333	50,173	0,101177	22,340000	51,645000
3,198735	603,834652	50,990	0,107468	22,350000	51,630000
3,214788	620,010034	51,805	0,113954	22,350000	51,630000
3,230789	636,523925	52,614	0,120576	22,350000	51,645000
3,246741	651,980888	53,419	0,126774	22,350000	51,645000
3,262723	668,114869	54,226	0,133244	22,350000	51,630000
3,278722	683,903035	55,038	0,139575	22,350000	51,630000
3,294772	698,626968	55,845	0,145479	22,350000	51,630000
3,310722	715,114070	56,649	0,152091	22,360000	51,650000
3,326725	730,423697	57,465	0,158230	22,360000	51,650000
3,342757	747,242002	58,275	0,164974	22,340000	51,630000
3,358688	762,625906	59,079	0,171143	22,340000	51,630000
3,374757	778,034163	59,886	0,177322	22,340000	51,630000
3,390710	795,116700	60,689	0,184172	22,340000	51,655000
3,406737	810,384926	61,494	0,190294	22,340000	51,655000
3,422703	826,534737	62,306	0,196771	22,350000	51,645000
3,438689	841,530208	63,109	0,202784	22,350000	51,645000
3,454751	858,052622	63,912	0,209409	22,350000	51,645000
3,470669	874,012479	64,722	0,215809	22,350000	51,645000
3,486646	890,105060	65,528	0,222262	22,350000	51,645000
3,491674	894,774782	66,337	0,224135	22,350000	51,645000
3,491703	894,484979	67,158	0,224019	22,350000	51,645000
3,491701	893,990609	67,982	0,223820	22,350000	51,645000
3,491701	893,866408	68,798	0,223771	22,350000	51,645000
3,491683	893,702024	69,622	0,223705	22,350000	51,645000
3,491675	893,594870	70,429	0,223662	22,340000	51,645000
3,491707	893,603394	71,248	0,223665	22,340000	51,645000
3,491763	893,199131	72,056	0,223503	22,340000	51,645000
3,491670	892,976299	72,861	0,223414	22,350000	51,645000
3,491675	893,057883	73,678	0,223446	22,350000	51,645000
3,491705	893,240531	74,485	0,223520	22,350000	51,645000
3,491728	892,729115	75,303	0,223314	22,350000	51,645000
3,488695	890,154984	76,108	0,222282	22,350000	51,645000
3,472677	873,236830	76,954	0,215498	22,350000	51,645000
3,456682	857,961298	77,756	0,209373	22,350000	51,645000
3,440770	841,778610	78,565	0,202883	22,350000	51,645000
3,424768	825,743259	79,376	0,196453	22,350000	51,645000
3,408717	808,495120	80,180	0,189537	22,350000	51,645000
3,392690	792,105430	80,989	0,182964	22,350000	51,620000
3,376710	777,011329	81,796	0,176912	22,350000	51,620000
3,360736	760,126052	82,599	0,170141	22,350000	51,620000
3,344693	745,031951	83,404	0,164088	22,350000	51,620000
3,328731	728,897970	84,210	0,157618	22,350000	51,645000
3,312772	711,881186	85,018	0,150794	22,350000	51,645000
3,296731	696,695761	85,819	0,144705	22,350000	51,645000
3,280712	680,653104	86,620	0,138272	22,350000	51,645000
3,264673	664,313338	87,437	0,131720	22,350000	51,645000
3,248801	647,849371	88,238	0,125118	22,350000	51,655000
3,232775	631,162572	89,041	0,118426	22,350000	51,655000
3,216723	615,588714	89,846	0,112181	22,350000	51,655000
3,200792	599,776194	90,658	0,105840	22,340000	51,630000
3,184743	583,353628	91,461	0,099255	22,340000	51,630000
3,168766	566,948108	92,266	0,092676	22,350000	51,645000
3,152769	551,952638	93,079	0,086663	22,350000	51,645000
3,136788	536,008611	93,897	0,080270	22,350000	51,645000
3,120794	520,220445	94,705	0,073938	22,350000	51,630000
3,104785	504,416449	95,519	0,067601	22,350000	51,630000
3,088730	488,216714	96,336	0,061105	22,350000	51,645000
3,072732	471,554269	97,141	0,054423	22,350000	51,645000
3,056824	455,858644	97,951	0,048129	22,350000	51,645000
3,040841	440,086308	98,757	0,041805	22,340000	51,620000
3,024798	424,727975	99,590	0,035646	22,340000	51,620000
3,008790	408,372380	100,414	0,029087	22,350000	51,620000
2,992843	391,561380	101,229	0,022346	22,350000	51,620000
2,976816	376,697417	102,040	0,016386	22,350000	51,620000
2,960834	360,407575	102,848	0,009854	22,350000	51,620000
2,944797	344,215146	103,651	0,003360	22,350000	51,620000
2,928803	327,899733	104,458	-0,003182	22,350000	51,645000
2,912743	312,829986	105,266	-0,009225	22,350000	51,645000
2,896791	296,927359	106,075	-0,015602	22,350000	51,645000
2,880816	279,646343	106,884	-0,022532	22,350000	51,630000
2,864818	264,353764	107,691	-0,028664	22,350000	51,630000
2,848781	248,245353	108,501	-0,035124	22,350000	51,645000
2,832831	233,389914	109,312	-0,041081	22,350000	51,645000
2,816782	217,140255	110,117	-0,047597	22,350000	51,645000
2,800788	200,759089	110,919	-0,054166	22,340000	51,655000
2,784814	185,342308	111,724	-0,060348	22,340000	51,655000
2,768841	170,016852	112,537	-0,066493	22,340000	51,670000
2,752896	152,925791	113,354	-0,073347	22,340000	51,670000
2,736838	138,243259	114,164	-0,079234	22,340000	51,670000
2,720832	122,266356	114,970	-0,085641	22,340000	51,670000
2,704848	105,546680	115,773	-0,092346	22,340000	51,670000
2,688822	90,295501	116,575	-0,098461	22,350000	51,630000
2,672829	74,161520	117,380	-0,104931	22,350000	51,630000
2,656777	58,711863	118,185	-0,111126	22,350000	51,630000
2,640846	43,204976	118,990	-0,117345	22,340000	51,630000
2,624837	26,188192	119,813	-0,124168	22,340000	51,630000
2,608877	11,382676	120,628	-0,130105	22,340000	51,645000
2,592785	-5,592708	121,429	-0,136913	22,340000	51,645000
2,576802	-21,388180	122,231	-0,143247	22,350000	51,645000
2,560802	-37,604962	123,036	-0,149750	22,350000	51,645000
2,544825	-52,600433	123,839	-0,155763	22,350000	51,645000
2,528803	-69,914326	124,644	-0,162706	22,350000	51,645000
2,512867	-85,735369	125,460	-0,169050	22,350000	51,645000
2,496857	-101,736625	126,273	-0,175466	22,350000	51,630000
2,480858	-118,036208	127,082	-0,182002	22,350000	51,630000
2,464841	-134,606112	127,889	-0,188647	22,350000	51,630000
2,448845	-150,732787	128,706	-0,195114	22,340000	51,630000
2,432827	-165,999795	129,530	-0,201236	22,340000	51,630000
2,416879	-181,912163	130,339	-0,207617	22,350000	51,645000
2,400791	-197,476280	131,152	-0,213858	22,350000	51,645000
2,384867	-214,130202	131,977	-0,220536	22,350000	51,645000
2,368882	-230,164335	132,787	-0,226966	22,340000	51,630000
2,352815	-245,679746	133,592	-0,233187	22,340000	51,630000
2,336839	0,131507	134,396	-0,134617	22,340000	51,630000
2,320855	0,221614	135,206	-0,134581	22,340000	51,630000
2,304830	0,354339	136,031	-0,134528	22,340000	51,630000
2,288805	0,074277	136,833	-0,134640	22,340000	51,620000
2,272804	0,618571	137,639	-0,134422	22,340000	51,620000
2,256818	-0,032877	138,443	-0,134683	22,350000	51,645000
2,240773	0,081583	139,246	-0,134637	22,350000	51,645000
2,224872	0,338509	140,049	-0,134534	22,350000	51,645000
2,208841	0,230138	140,855	-0,134578	22,350000	51,620000
2,192842	0,214308	141,666	-0,134584	22,350000	51,620000
2,191810	0,304415	141,717	-0,134548	22,350000	51,620000

X-Pos [um]	Y-Pos [um]
0,000000	2,000857

POC
2,597772
2,212772	-0,255708	0,918	-0,134630	22,360000	51,635000
2,228703	-0,238661	1,722	-0,134624	22,360000	51,635000
2,244702	-0,065754	2,527	-0,134554	22,360000	51,635000
2,260722	-0,189955	3,331	-0,134604	22,360000	51,635000
2,276708	-0,074277	4,137	-0,134558	22,350000	51,645000
2,292754	-0,305632	4,944	-0,134650	22,350000	51,645000
2,308741	0,008524	5,751	-0,134524	22,350000	51,620000
2,324711	-0,297109	6,557	-0,134647	22,350000	51,620000
2,340735	-0,255708	7,366	-0,134630	22,350000	51,620000
2,356717	-0,148554	8,169	-0,134587	22,350000	51,645000
2,372769	-0,445663	8,974	-0,134707	22,350000	51,645000
2,388722	-0,247185	9,779	-0,134627	22,340000	51,630000
2,404671	0,181431	10,593	-0,134455	22,340000	51,630000
2,420709	-0,181431	11,394	-0,134601	22,340000	51,630000
2,436736	-0,107154	12,200	-0,134571	22,350000	51,645000
2,452682	-0,255708	13,008	-0,134630	22,350000	51,645000
2,468696	-0,528464	13,813	-0,134740	22,350000	51,645000
2,484721	-0,329986	14,615	-0,134660	22,350000	51,645000
2,500725	-0,371386	15,423	-0,134677	22,350000	51,645000
2,516754	-0,371386	16,229	-0,134677	22,350000	51,630000
2,532745	-0,642924	17,032	-0,134786	22,350000	51,630000
2,548674	-0,709895	17,835	-0,134813	22,340000	51,630000
2,564746	-1,071540	18,640	-0,134958	22,340000	51,630000
2,580692	-8,438377	19,450	-0,137912	22,340000	51,630000
2,596684	6,449940	20,256	-0,131941	22,340000	51,630000
2,612677	21,940997	21,061	-0,125729	22,340000	51,630000
2,628718	36,796437	21,867	-0,119772	22,340000	51,620000
2,644744	53,623266	22,673	-0,113025	22,340000	51,620000
2,660699	68,140196	23,482	-0,107204	22,340000	51,620000
2,676741	83,837038	24,289	-0,100909	22,350000	51,630000
2,692668	99,343925	25,093	-0,094691	22,350000	51,630000
2,708707	116,253556	25,903	-0,087910	22,340000	51,630000
2,724702	132,330307	26,709	-0,081463	22,340000	51,630000
2,740693	147,193053	27,514	-0,075503	22,340000	51,630000
2,756662	162,618356	28,323	-0,069318	22,340000	51,630000
2,772721	178,603784	29,127	-0,062908	22,340000	51,630000
2,788701	195,000779	29,935	-0,056333	22,350000	51,605000
2,804743	210,467484	30,759	-0,050130	22,350000	51,605000
2,820665	225,809987	31,566	-0,043978	22,350000	51,605000
2,836699	242,628293	32,366	-0,037234	22,350000	51,605000
2,852631	257,492256	33,170	-0,031273	22,350000	51,605000
2,868753	273,484989	33,977	-0,024860	22,360000	51,610000
2,884686	290,311818	34,784	-0,018113	22,360000	51,610000
2,900717	304,920073	35,593	-0,012255	22,350000	51,655000
2,916653	321,408393	36,398	-0,005643	22,350000	51,655000
2,932679	337,633699	37,205	0,000863	22,350000	51,655000
2,948687	353,594773	38,011	0,007264	22,350000	51,655000
2,964697	369,761631	38,823	0,013747	22,350000	51,655000
2,980662	384,508699	39,628	0,019660	22,350000	51,670000
2,996652	400,758358	40,432	0,026176	22,350000	51,670000
3,012756	416,413799	41,238	0,032454	22,350000	51,670000
3,028658	432,029058	42,040	0,038716	22,360000	51,650000
3,044653	449,028795	42,857	0,045533	22,360000	51,650000
3,060683	465,064146	43,663	0,051963	22,340000	51,645000
3,076734	479,852615	44,467	0,057893	22,340000	51,645000
3,092680	495,467873	45,275	0,064155	22,340000	51,645000
3,108697	511,263346	46,097	0,070489	22,350000	51,605000
3,124676	527,685912	46,904	0,077074	22,350000	51,605000
3,140670	544,034202	47,710	0,083630	22,350000	51,630000
3,156642	558,856764	48,527	0,089574	22,350000	51,630000
3,172644	575,847978	49,332	0,096387	22,350000	51,630000
3,188712	591,644668	50,137	0,102722	22,350000	51,630000
3,204625	607,357339	50,941	0,109022	22,350000	51,630000
3,220658	622,584165	51,745	0,115128	22,340000	51,645000
3,236680	638,453914	52,553	0,121492	22,340000	51,645000
3,252631	654,176327	53,357	0,127797	22,340000	51,645000
3,268666	669,980323	54,166	0,134134	22,360000	51,650000
3,284647	685,907302	54,969	0,140521	22,360000	51,650000
3,300664	701,901253	55,776	0,146935	22,340000	51,655000
3,316683	717,449540	56,581	0,153169	22,340000	51,655000
3,332604	733,352166	57,386	0,159546	22,340000	51,655000
3,348656	749,693150	58,195	0,166099	22,340000	51,655000
3,364634	765,265791	59,001	0,172344	22,340000	51,655000
3,380624	780,228384	59,805	0,178344	22,350000	51,630000
3,396568	796,948060	60,621	0,185048	22,350000	51,630000
3,412630	812,471994	61,424	0,191273	22,350000	51,630000
3,428667	829,009020	62,226	0,197905	22,350000	51,630000
3,444587	844,879988	63,031	0,204269	22,350000	51,630000
3,460595	860,559782	63,835	0,210557	22,350000	51,630000
3,476581	875,802437	64,641	0,216669	22,350000	51,630000
3,492593	891,680710	65,446	0,223036	22,350000	51,630000
3,497634	897,059110	66,247	0,225193	22,350000	51,645000
3,497542	896,984833	67,051	0,225163	22,350000	51,645000
3,497591	897,166264	67,857	0,225236	22,340000	51,645000
3,497533	896,687724	68,657	0,225044	22,340000	51,645000
3,497549	896,720601	69,465	0,225057	22,340000	51,645000
3,497607	896,506293	70,269	0,224971	22,340000	51,645000
3,497561	896,449063	71,079	0,224948	22,340000	51,645000
3,497617	896,259108	71,885	0,224872	22,350000	51,655000
3,497535	896,143430	72,689	0,224826	22,350000	51,655000
3,497626	896,366262	73,496	0,224915	22,350000	51,655000
3,497648	896,036276	74,297	0,224783	22,360000	51,660000
3,497592	895,632014	75,104	0,224621	22,360000	51,660000
3,494520	893,553470	75,923	0,223787	22,360000	51,660000
3,478586	877,196657	76,738	0,217228	22,360000	51,660000
3,462547	860,081242	77,540	0,210365	22,340000	51,645000
3,446626	843,791400	78,401	0,203833	22,340000	51,645000
3,430574	828,687558	79,209	0,197776	22,340000	51,645000
3,414622	812,463470	80,018	0,191270	22,340000	51,655000
3,398621	795,505134	80,824	0,184470	22,340000	51,655000
3,382614	779,675567	81,646	0,178122	22,340000	51,645000
3,366657	763,112970	82,468	0,171480	22,340000	51,645000
3,350569	747,968945	83,290	0,165408	22,340000	51,645000
3,334595	731,966471	84,094	0,158991	22,350000	51,645000
3,318623	715,569475	84,908	0,152416	22,350000	51,645000
3,302634	699,772785	85,713	0,146081	22,350000	51,655000
3,286633	683,070157	86,520	0,139383	22,350000	51,655000
3,270624	667,439068	87,327	0,133115	22,350000	51,655000
3,254662	651,280734	88,143	0,126636	22,350000	51,655000
3,238669	635,675216	88,970	0,120378	22,350000	51,655000
3,222645	618,031338	89,776	0,113303	22,350000	51,630000
3,206691	603,348806	90,581	0,107415	22,350000	51,630000
3,190637	587,396255	91,384	0,101018	22,350000	51,630000
3,174665	571,163644	92,225	0,094509	22,350000	51,630000
3,158710	554,081106	93,033	0,087659	22,350000	51,630000
3,142647	539,159913	93,841	0,081675	22,340000	51,645000
3,126661	522,654545	94,647	0,075057	22,340000	51,645000
3,110695	507,617675	95,464	0,069027	22,340000	51,645000
3,094646	491,293738	96,277	0,062481	22,350000	51,645000
3,078710	475,192634	97,081	0,056024	22,350000	51,645000
3,062626	459,578593	97,888	0,049763	22,350000	51,630000
3,046721	443,584642	98,707	0,043350	22,350000	51,630000
3,030721	427,079274	99,517	0,036731	22,350000	51,630000
3,014683	411,539511	100,326	0,030500	22,360000	51,635000
2,998648	395,636884	101,135	0,024123	22,360000	51,635000
2,982700	380,121474	101,958	0,017901	22,360000	51,650000
2,966706	362,617626	102,762	0,010882	22,360000	51,650000
[...]
2,577507	6,137001	20,282	-0,131875	22,350000	51,605000
2,593503	21,816796	21,096	-0,125587	22,350000	51,605000
2,609526	37,299330	21,905	-0,119379	22,340000	51,605000
2,625461	53,153250	22,708	-0,113021	22,340000	51,605000
2,641469	68,858615	23,517	-0,106724	22,350000	51,620000
2,657505	84,595640	24,327	-0,100413	22,350000	51,620000
2,673463	100,210899	25,133	-0,094151	22,350000	51,620000
2,689455	116,179278	25,945	-0,087748	22,340000	51,620000
2,705445	132,066075	26,751	-0,081377	22,340000	51,620000
2,721490	147,828671	27,557	-0,075057	22,340000	51,620000
2,737456	164,457022	28,361	-0,068389	22,340000	51,620000
2,753516	179,452492	29,167	-0,062375	22,340000	51,620000
2,769469	195,686321	29,968	-0,055866	22,340000	51,605000
2,785473	212,124718	30,776	-0,049274	22,340000	51,605000
2,801511	226,988681	31,582	-0,043313	22,340000	51,605000
2,817492	243,196939	32,427	-0,036814	22,340000	51,605000
2,833540	258,448118	33,229	-0,030698	22,340000	51,605000
2,849419	275,473426	34,038	-0,023871	22,350000	51,645000
2,865463	290,361742	34,854	-0,017901	22,350000	51,645000
2,881518	306,008660	35,674	-0,011626	22,350000	51,645000
2,897475	322,011134	36,496	-0,005209	22,350000	51,645000
2,913392	338,202346	37,327	0,001283	22,350000	51,645000
2,929474	354,353374	38,141	0,007760	22,340000	51,605000
2,945480	369,604553	38,952	0,013875	22,340000	51,605000
2,961501	385,474303	39,779	0,020239	22,350000	51,630000
2,977407	401,376929	40,588	0,026616	22,350000	51,630000
2,993445	416,900863	41,393	0,032841	22,340000	51,620000
3,009493	433,983401	42,237	0,039691	22,340000	51,620000
3,025418	449,317380	43,039	0,045840	22,340000	51,620000
3,041500	464,577083	43,858	0,051959	22,350000	51,630000
3,057480	480,372555	44,685	0,058293	22,350000	51,630000
3,073464	496,530890	45,492	0,064773	22,350000	51,630000
3,089445	513,160458	46,298	0,071441	22,350000	51,630000
3,105430	529,005855	47,115	0,077795	22,350000	51,630000
3,121500	543,984278	47,923	0,083802	22,350000	51,630000
3,137460	560,638199	48,737	0,090480	22,350000	51,630000
3,153460	576,837934	49,543	0,096976	22,340000	51,620000
3,169407	591,833405	50,360	0,102989	22,340000	51,620000
3,185412	608,421573	51,197	0,109641	22,340000	51,620000
3,201439	622,964074	52,006	0,115473	22,340000	51,620000
3,217394	639,476748	52,855	0,122094	22,340000	51,620000
3,233436	655,420774	53,676	0,128488	22,350000	51,645000
3,249394	671,678957	54,488	0,135007	22,350000	51,645000
3,265447	686,724351	55,298	0,141041	22,350000	51,645000
3,281419	702,469899	56,106	0,147354	22,350000	51,645000
3,297441	718,645281	56,917	0,153841	22,350000	51,645000
3,313433	735,175002	57,743	0,160469	22,340000	51,630000
3,329406	751,070322	58,559	0,166843	22,340000	51,630000
3,345382	765,834437	59,375	0,172764	22,340000	51,630000
3,361434	782,051220	60,186	0,179267	22,340000	51,630000
3,377374	798,086571	61,011	0,185697	22,340000	51,630000
3,393379	814,443384	61,819	0,192256	22,350000	51,645000
3,409369	830,033072	62,635	0,198507	22,350000	51,645000
3,425429	845,135696	63,454	0,204563	22,340000	51,620000
3,441383	862,209710	64,259	0,211410	22,340000	51,620000
3,457403	876,768041	65,064	0,217248	22,340000	51,620000
3,473375	893,173560	65,889	0,223827	22,350000	51,620000
3,478404	898,230498	66,694	0,225854	22,350000	51,620000
3,478347	898,156221	67,513	0,225825	22,350000	51,620000
3,478364	897,991837	68,348	0,225759	22,350000	51,620000
3,478408	897,941913	69,156	0,225739	22,350000	51,620000
3,478378	897,620451	69,967	0,225610	22,350000	51,645000
3,478463	897,586356	70,788	0,225596	22,350000	51,645000
3,478408	897,290465	71,605	0,225478	22,360000	51,635000
3,478398	897,347695	72,424	0,225500	22,360000	51,635000
3,478333	896,696248	73,237	0,225239	22,360000	51,635000
3,478356	897,059110	74,043	0,225385	22,350000	51,605000
3,478425	896,663371	74,865	0,225226	22,350000	51,605000
3,478356	896,737648	75,669	0,225256	22,350000	51,605000
3,475342	893,677671	76,471	0,224029	22,350000	51,605000
3,459424	877,757998	77,283	0,217645	22,350000	51,605000
3,443361	862,159786	78,098	0,211390	22,340000	51,630000
3,427390	844,887293	78,915	0,204464	22,340000	51,630000
3,411412	829,298823	79,722	0,198213	22,360000	51,635000
3,395384	813,783413	80,547	0,191991	22,360000	51,635000
3,379382	796,873782	81,352	0,185210	22,350000	51,630000
3,363392	780,929756	82,168	0,178817	22,350000	51,630000
3,347403	765,174466	82,972	0,172499	22,350000	51,630000
3,331451	748,677622	83,780	0,165884	22,350000	51,630000
3,315458	733,113505	84,600	0,159643	22,350000	51,630000
3,299424	717,242538	85,417	0,153278	22,340000	51,630000
3,283428	701,141434	86,234	0,146822	22,340000	51,630000
3,267411	684,348699	87,036	0,140088	22,340000	51,630000
3,251385	668,783364	87,838	0,133846	22,340000	51,630000
3,235457	652,830814	88,645	0,127449	22,340000	51,630000
3,219492	636,119662	89,449	0,120748	22,360000	51,635000
3,203372	620,704099	90,255	0,114566	22,360000	51,635000
3,187468	604,998734	91,071	0,108269	22,360000	51,635000
3,171472	587,809042	91,882	0,101375	22,360000	51,635000
3,155396	571,946598	92,688	0,095015	22,360000	51,635000
3,139460	556,588266	93,509	0,088856	22,350000	51,620000
3,123467	540,429931	94,326	0,082376	22,350000	51,620000
3,107461	524,477381	95,136	0,075979	22,350000	51,620000
3,091435	508,879169	95,979	0,069725	22,340000	51,620000
3,075470	492,423726	96,781	0,063126	22,340000	51,620000
3,059454	475,688221	97,605	0,056415	22,350000	51,605000
3,043470	460,691533	98,436	0,050401	22,350000	51,605000
3,027476	444,970338	99,259	0,044097	22,350000	51,605000
3,011419	429,323420	100,065	0,037823	22,340000	51,630000
2,995496	412,850929	100,885	0,031217	22,340000	51,630000
2,979466	396,337038	101,704	0,024595	22,350000	51,620000
2,963464	381,301385	102,529	0,018566	22,350000	51,620000
2,947451	364,383231	103,337	0,011782	22,350000	51,620000
2,931452	349,287913	104,166	0,005729	22,350000	51,620000
2,915468	333,979504	104,983	-0,000410	22,350000	51,620000
2,899505	317,746893	105,788	-0,006919	22,350000	51,605000
2,883497	300,713061	106,609	-0,013750	22,350000	51,605000
2,867489	285,907546	107,414	-0,019687	22,340000	51,630000
2,851472	270,632014	108,235	-0,025813	22,340000	51,630000
2,835486	254,480985	109,056	-0,032289	22,340000	51,630000
2,819505	238,421281	109,873	-0,038729	22,350000	51,605000
2,803482	221,511651	110,695	-0,045510	22,350000	51,605000
2,787457	206,409026	111,525	-0,051566	22,350000	51,620000
2,771501	190,654954	112,343	-0,057883	22,350000	51,620000
2,755510	175,015343	113,165	-0,064155	22,350000	51,620000
2,739496	158,732807	114,000	-0,070684	22,350000	51,630000
2,723496	143,193043	114,809	-0,076916	22,350000	51,630000
2,707507	127,190569	115,624	-0,083333	22,340000	51,605000
2,691524	110,925080	116,435	-0,089855	22,340000	51,605000
2,675537	95,575271	117,241	-0,096010	22,340000	51,605000
2,659453	80,067166	118,056	-0,102229	22,340000	51,620000
2,643511	63,843078	118,860	-0,108735	22,340000	51,620000
2,627510	47,370587	119,685	-0,115340	22,340000	51,620000
2,611498	32,168115	120,504	-0,121437	22,340000	51,620000
2,595537	15,821043	121,309	-0,127992	22,340000	51,620000
2,579509	0,041400	122,127	-0,134319	22,340000	51,630000
2,563477	-15,268226	122,948	-0,140458	22,340000	51,630000
2,547488	-30,395203	123,758	-0,146524	22,340000	51,630000
2,531463	-46,150493	124,564	-0,152842	22,340000	51,630000
2,515475	-62,011719	125,367	-0,159203	22,340000	51,630000
2,499565	-77,922869	126,171	-0,165583	22,340000	51,630000
2,483516	-93,536910	127,007	-0,171844	22,340000	51,630000
2,467509	-109,580784	127,811	-0,178278	22,350000	51,630000
2,451562	-125,607612	128,617	-0,184705	22,350000	51,630000
2,435521	-141,625916	129,454	-0,191128	22,350000	51,630000
2,419539	-157,364158	130,259	-0,197439	22,350000	51,630000
2,403518	-174,372419	131,065	-0,204259	22,350000	51,630000
2,387502	-189,524967	131,871	-0,210335	22,340000	51,630000
2,371536	-206,186195	132,724	-0,217017	22,340000	51,630000
2,355492	-222,584408	133,556	-0,223592	22,340000	51,630000
2,339540	-237,827063	134,368	-0,229705	22,340000	51,630000
2,323542	-253,853891	135,198	-0,236131	22,340000	51,630000
2,307514	-269,583609	136,008	-0,242439	22,340000	51,605000
2,291539	-0,231355	136,820	-0,134429	22,340000	51,605000
2,275530	-0,321462	137,641	-0,134465	22,340000	51,620000
2,259541	-0,329986	138,469	-0,134468	22,340000	51,620000
2,243512	-0,404263	139,299	-0,134498	22,340000	51,620000
2,227455	-0,305632	140,119	-0,134458	22,350000	51,630000
2,211541	-0,272756	140,919	-0,134445	22,350000	51,630000
2,195476	-0,347033	141,728	-0,134475	22,350000	51,630000
2,179495	-0,124201	142,555	-0,134386	22,350000	51,630000
2,178487	-0,264232	142,605	-0,134442	22,350000	51,630000