File: Nanoindentation Datenauswertung/data/S_calib/S_calib_2408-2
Quasi static measurement routine
Tip parameters (shape,radius, material...)
24.08.2022

Piezo position[nm]	MEMS displ.[nm]	Time[ms]	Cap [pf]	Temp [°C]	Rh [%]
eoh
2,619908	0,165623	0,222	-0,121575	22,350000	51,555000
2,639901	18,398879	1,226	-0,114318	22,350000	51,580000
2,659905	40,621810	2,229	-0,105474	22,350000	51,580000
2,679875	60,907565	3,234	-0,097400	22,350000	51,580000
2,699868	80,529601	4,238	-0,089590	22,350000	51,580000
2,719906	98,937068	5,243	-0,082264	22,350000	51,555000
2,739914	119,347961	6,246	-0,074141	22,350000	51,555000
2,759848	140,923121	7,248	-0,065554	22,350000	51,565000
2,779898	160,801566	8,250	-0,057642	22,350000	51,565000
2,799894	180,697187	9,254	-0,049724	22,350000	51,565000
2,819871	199,121830	10,257	-0,042391	22,350000	51,565000
2,839902	219,116824	11,259	-0,034433	22,350000	51,565000
2,859879	238,472637	12,263	-0,026729	22,350000	51,565000
2,879903	258,883529	13,264	-0,018605	22,360000	51,585000
2,899856	281,073335	14,265	-0,009774	22,360000	51,585000
2,919855	300,902707	15,267	-0,001882	22,360000	51,585000
2,939864	319,783733	16,271	0,005633	22,360000	51,585000
2,959926	339,040172	17,277	0,013297	22,350000	51,555000
2,979840	359,017990	18,280	0,021248	22,350000	51,555000
2,999884	378,930787	19,285	0,029173	22,350000	51,555000
3,019858	399,623852	20,289	0,037409	22,350000	51,555000
3,039854	419,253249	21,293	0,045222	22,350000	51,565000
3,059876	438,899821	22,296	0,053041	22,350000	51,565000
3,079908	460,964490	23,301	0,061823	22,360000	51,570000
3,099888	478,940111	24,304	0,068977	22,360000	51,570000
3,119877	501,046492	25,305	0,077775	22,350000	51,565000
3,139864	521,241461	26,308	0,085813	22,350000	51,565000
3,159892	539,608443	27,310	0,093123	22,340000	51,555000
3,179862	559,178951	28,312	0,100912	22,340000	51,555000
3,199794	579,149409	29,316	0,108860	22,360000	51,560000
3,219877	601,414053	30,318	0,117722	22,360000	51,560000
3,239828	621,342798	31,321	0,125653	22,340000	51,595000
3,259789	639,476680	32,326	0,132871	22,340000	51,595000
3,279865	659,189502	33,328	0,140716	22,340000	51,595000
3,299833	681,370721	34,329	0,149544	22,340000	51,595000
3,319859	699,412590	35,331	0,156725	22,360000	51,570000
3,339849	719,865195	36,336	0,164865	22,360000	51,570000
3,359839	739,486004	37,339	0,172674	22,360000	51,585000
3,379859	758,709318	38,342	0,180325	22,360000	51,585000
3,399831	778,829450	39,345	0,188333	22,360000	51,585000
3,419806	800,735857	40,347	0,197052	22,360000	51,585000
3,439829	820,605714	41,352	0,204960	22,360000	51,560000
3,459760	840,734434	42,355	0,212971	22,360000	51,560000
3,479775	858,968917	43,357	0,220229	22,360000	51,560000
3,499788	880,483963	44,358	0,228792	22,360000	51,560000
3,519811	898,019148	45,361	0,235771	22,350000	51,565000
3,539787	919,469172	46,366	0,244308	22,350000	51,565000
3,559755	938,475336	47,367	0,251872	22,350000	51,565000
3,579725	958,919353	48,371	0,260009	22,350000	51,565000
3,599803	978,217504	49,375	0,267689	22,360000	51,585000
3,619787	998,012524	50,379	0,275568	22,360000	51,585000
3,639710	1020,310292	51,381	0,284442	22,360000	51,570000
3,659782	1039,142244	52,381	0,291938	22,360000	51,570000
3,679729	1057,833111	53,386	0,299376	22,350000	51,565000
3,699762	1078,002316	54,388	0,307404	22,350000	51,565000
3,719780	1097,516391	55,391	0,315170	22,340000	51,555000
3,739762	1119,098913	56,393	0,323760	22,340000	51,555000
3,759763	1137,365293	57,395	0,331030	22,350000	51,540000
3,779696	1157,601975	58,400	0,339084	22,350000	51,540000
3,799795	1177,239960	59,402	0,346900	22,360000	51,570000
3,819742	1196,877944	60,404	0,354716	22,360000	51,570000
3,839764	1217,247124	61,407	0,362823	22,360000	51,570000
3,859769	1237,250707	62,408	0,370785	22,360000	51,570000
3,879717	1257,212577	63,414	0,378729	22,360000	51,570000
3,899741	1278,297003	64,416	0,387121	22,360000	51,570000
3,919741	1297,950936	65,420	0,394943	22,360000	51,570000
3,939744	1317,033164	66,424	0,402538	22,360000	51,570000
3,959712	1336,878484	67,426	0,410437	22,350000	51,580000
3,979717	1356,541006	68,430	0,418262	22,350000	51,580000
3,999756	1376,685674	69,431	0,426280	22,350000	51,580000
4,019726	1396,457385	70,437	0,434149	22,350000	51,580000
4,039725	1417,000775	71,439	0,442325	22,350000	51,580000
4,059726	1436,290338	72,445	0,450002	22,350000	51,580000
4,079730	1456,285333	73,448	0,457960	22,350000	51,555000
4,099679	1476,306091	74,450	0,465929	22,350000	51,555000
4,119684	1497,239616	75,453	0,474260	22,350000	51,565000
4,119765	1497,763476	76,455	0,474469	22,350000	51,565000
4,119732	1497,197904	77,456	0,474244	22,350000	51,565000
4,119649	1497,065405	78,457	0,474191	22,350000	51,565000
4,119733	1496,766057	79,464	0,474072	22,360000	51,570000
4,119670	1496,292498	80,468	0,473883	22,360000	51,570000
4,119682	1496,409047	81,472	0,473930	22,350000	51,555000
4,119702	1496,275322	82,475	0,473876	22,350000	51,555000
4,119745	1495,719565	83,480	0,473655	22,340000	51,580000
4,119751	1495,686440	84,485	0,473642	22,340000	51,580000
4,119685	1495,387092	85,492	0,473523	22,360000	51,600000
4,099680	1475,799407	86,498	0,465727	22,360000	51,600000
4,079727	1455,935684	87,504	0,457821	22,360000	51,560000
4,059739	1435,434006	88,505	0,449662	22,360000	51,560000
4,039722	1415,621810	89,510	0,441776	22,350000	51,555000
4,019708	1393,473716	90,513	0,432961	22,350000	51,555000
3,999756	1375,123911	91,514	0,425658	22,350000	51,555000
3,979699	1354,854105	92,516	0,417591	22,350000	51,555000
3,959759	1333,445793	93,520	0,409070	22,360000	51,585000
3,939751	1312,204332	94,571	0,400616	22,360000	51,585000
3,919790	1291,718603	95,575	0,392463	22,360000	51,585000
3,899801	1273,650970	96,576	0,385272	22,360000	51,585000
3,879735	1251,403502	97,578	0,376417	22,350000	51,555000
3,859732	1232,888073	98,583	0,369048	22,350000	51,555000
3,839739	1210,689679	99,585	0,360213	22,350000	51,595000
3,819756	1192,631860	100,587	0,353026	22,350000	51,595000
3,799791	1171,746182	101,590	0,344714	22,350000	51,555000
3,779767	1151,610101	102,597	0,336700	22,350000	51,555000
3,759761	1129,935567	103,603	0,328073	22,350000	51,555000
3,739795	1110,073070	104,605	0,320168	22,350000	51,555000
3,719759	1089,545629	105,606	0,311998	22,350000	51,540000
3,699779	1071,503759	106,608	0,304817	22,350000	51,540000
3,679784	1050,868355	107,614	0,296604	22,350000	51,540000
3,659724	1031,130997	108,618	0,288749	22,350000	51,540000
3,639739	1009,465050	109,621	0,280126	22,350000	51,565000
3,619834	989,494592	110,627	0,272178	22,350000	51,565000
3,599757	970,380467	111,632	0,264570	22,350000	51,595000
3,579776	950,575632	112,636	0,256688	22,350000	51,595000
3,559756	930,206452	113,637	0,248581	22,350000	51,580000
3,539817	910,178333	114,640	0,240610	22,350000	51,580000
3,519762	889,725728	115,641	0,232470	22,350000	51,580000
3,499830	869,689021	116,644	0,224495	22,350000	51,580000
3,479791	847,981362	117,644	0,215855	22,350000	51,595000
3,459759	828,900361	118,646	0,208261	22,350000	51,595000
3,439773	809,627974	119,649	0,200591	22,350000	51,565000
3,419809	789,857491	120,651	0,192722	22,350000	51,565000
3,399791	769,462547	121,653	0,184605	22,350000	51,565000
3,379831	747,281329	122,654	0,175777	22,350000	51,565000
3,359813	728,316877	123,656	0,168229	22,350000	51,580000
3,339811	707,690062	124,660	0,160020	22,350000	51,580000
3,319842	688,957483	125,663	0,152564	22,350000	51,580000
3,299831	669,195587	126,665	0,144699	22,350000	51,580000
3,279786	649,099992	127,667	0,136701	22,360000	51,560000
3,259878	626,702850	128,671	0,127787	22,360000	51,560000
3,239817	608,535843	129,676	0,120556	22,350000	51,565000
3,219823	589,155494	130,677	0,112843	22,350000	51,565000
3,199852	568,478378	131,678	0,104613	22,350000	51,555000
3,179835	548,948355	132,680	0,096840	22,350000	51,555000
3,159873	527,158498	133,684	0,088168	22,350000	51,555000
3,139845	507,188040	134,688	0,080220	22,350000	51,555000
3,119816	487,574592	135,692	0,072414	22,350000	51,555000
3,099889	468,451879	136,694	0,064803	22,350000	51,555000
3,079886	449,062942	137,697	0,057086	22,360000	51,610000
3,059897	429,316995	138,698	0,049227	22,360000	51,610000
3,039890	407,244965	139,700	0,040442	22,350000	51,565000
3,019912	389,269345	140,701	0,033288	22,350000	51,565000
2,999892	367,453724	141,703	0,024605	22,350000	51,565000
2,979868	348,430384	142,706	0,017034	22,350000	51,565000
2,959930	328,942074	143,710	0,009278	22,350000	51,565000
2,939827	309,436587	144,713	0,001515	22,350000	51,565000
2,919897	289,907791	145,716	-0,006258	22,350000	51,565000
2,899958	269,779071	146,717	-0,014269	22,350000	51,565000
2,879882	250,332473	147,718	-0,022009	22,340000	51,555000
2,859958	228,748724	148,724	-0,030599	22,340000	51,555000
2,839943	209,502100	149,725	-0,038259	22,340000	51,555000
2,819842	190,121751	150,728	-0,045973	22,340000	51,555000
2,799866	170,158655	151,734	-0,053918	22,360000	51,610000
2,779887	150,504721	152,735	-0,061740	22,360000	51,610000
2,759877	130,542851	153,738	-0,069685	22,350000	51,580000
2,739918	111,004240	154,742	-0,077461	22,350000	51,580000
2,719933	89,322344	155,748	-0,086091	22,360000	51,585000
2,699990	71,378622	156,750	-0,093232	22,360000	51,585000
2,679882	49,896700	157,752	-0,101782	22,360000	51,585000
2,659900	29,078498	158,755	-0,110068	22,360000	51,585000
2,639937	9,797523	159,756	-0,117742	22,360000	51,560000
2,619922	-10,222008	160,756	-0,125709	22,360000	51,560000