File: Nanoindentation Datenauswertung/data/S_calib/S_calib_2408-3
Quasi static measurement routine
Tip parameters (shape,radius, material...)
24.08.2022

Piezo position[nm]	MEMS displ.[nm]	Time[ms]	Cap [pf]	Temp [°C]	Rh [%]
eoh
2,615846	-0,574160	0,191	-0,121268	22,360000	51,570000
2,635868	17,617384	1,192	-0,114027	22,350000	51,580000
2,655822	38,061401	2,193	-0,105891	22,350000	51,580000
2,675843	60,076996	3,197	-0,097128	22,360000	51,570000
2,695844	78,543352	4,201	-0,089779	22,360000	51,570000
2,715760	99,294078	5,202	-0,081520	22,350000	51,595000
2,735809	118,458503	6,204	-0,073893	22,350000	51,595000
2,755814	138,155376	7,207	-0,066053	22,360000	51,570000
2,775790	158,233796	8,207	-0,058062	22,360000	51,570000
2,795769	178,428765	9,209	-0,050024	22,360000	51,570000
2,815784	198,697344	10,211	-0,041958	22,360000	51,570000
2,835784	219,915495	11,213	-0,033513	22,350000	51,605000
2,855745	239,461467	12,216	-0,025733	22,350000	51,605000
2,875820	259,323964	13,217	-0,017828	22,350000	51,605000
2,895791	279,078498	14,236	-0,009966	22,350000	51,605000
2,915858	298,923818	15,240	-0,002067	22,340000	51,565000
2,935835	318,993650	16,243	0,005920	22,340000	51,565000
2,955798	338,856146	17,247	0,013826	22,350000	51,565000
2,975773	360,173671	18,251	0,022310	22,350000	51,565000
2,995820	378,997036	19,254	0,029802	22,350000	51,565000
3,015779	398,908606	20,259	0,037727	22,350000	51,565000
3,035798	418,912188	21,262	0,045688	22,360000	51,585000
3,055742	439,340256	22,263	0,053818	22,360000	51,585000
3,075757	458,753730	23,266	0,061545	22,340000	51,555000
3,095815	478,856686	24,271	0,069546	22,340000	51,555000
3,115755	498,952281	25,274	0,077544	22,350000	51,565000
3,135763	520,475915	26,280	0,086110	22,350000	51,565000
3,155773	540,621810	27,284	0,094128	22,350000	51,580000
3,175798	560,982402	28,287	0,102232	22,350000	51,580000
3,195720	578,992374	29,287	0,109400	22,360000	51,585000
3,215763	600,350385	30,291	0,117900	22,360000	51,585000
3,235760	621,026274	31,293	0,126129	22,350000	51,580000
3,255777	640,947658	32,295	0,134058	22,350000	51,580000
3,275817	658,872978	33,298	0,141192	22,350000	51,580000
3,295776	679,442133	34,300	0,149379	22,350000	51,580000
3,315768	699,745063	35,302	0,157459	22,360000	51,600000
3,335735	720,812314	36,306	0,165844	22,360000	51,600000
3,355704	738,688560	37,310	0,172959	22,360000	51,600000
3,375746	760,744641	38,313	0,181737	22,360000	51,600000
3,395748	779,618306	39,316	0,189249	22,360000	51,570000
3,415736	800,370260	40,318	0,197508	22,360000	51,570000
3,435723	818,977701	41,319	0,204914	22,350000	51,555000
3,455713	838,847558	42,320	0,212822	22,350000	51,555000
3,475678	860,788317	43,325	0,221555	22,350000	51,555000
3,495736	880,301164	44,329	0,229321	22,350000	51,555000
3,515720	899,540427	45,332	0,236978	22,360000	51,570000
3,535706	918,563766	46,333	0,244549	22,360000	51,570000
3,555756	940,602672	47,337	0,253321	22,360000	51,570000
3,575722	958,029896	48,337	0,260257	22,360000	51,570000
3,595761	980,153453	49,340	0,269062	22,350000	51,605000
3,615696	999,749725	50,343	0,276861	22,350000	51,605000
3,635780	1019,803608	51,346	0,284843	22,350000	51,605000
3,655664	1038,087164	52,348	0,292120	22,350000	51,605000
3,675605	1058,090747	53,351	0,300081	22,340000	51,580000
3,695664	1077,894355	54,352	0,307963	22,340000	51,580000
3,715693	1097,208454	55,357	0,315650	22,340000	51,580000
3,735681	1119,189698	56,361	0,324398	22,340000	51,580000
3,755697	1139,010482	57,364	0,332287	22,350000	51,555000
3,775725	1157,135777	58,366	0,339501	22,350000	51,555000
3,795717	1177,821480	59,368	0,347734	22,350000	51,555000
3,815666	1197,475414	60,371	0,355556	22,350000	51,555000
3,835669	1218,934026	61,374	0,364097	22,360000	51,570000
3,855667	1237,076496	62,377	0,371317	22,360000	51,570000
3,875656	1258,110621	63,383	0,379689	22,350000	51,555000
3,895655	1278,820862	64,388	0,387932	22,350000	51,555000
3,915701	1298,666182	65,394	0,395830	22,350000	51,555000
3,935664	1317,049113	66,432	0,403146	22,350000	51,555000
3,955679	1336,770523	67,434	0,410996	22,350000	51,555000
3,975628	1358,461006	68,436	0,419628	22,350000	51,555000
3,995593	1378,772525	69,438	0,427712	22,350000	51,580000
4,015634	1396,664720	70,439	0,434833	22,350000	51,580000
4,035631	1416,252405	71,443	0,442629	22,350000	51,595000
4,055639	1438,517048	72,447	0,451491	22,350000	51,595000
4,075656	1455,820362	73,451	0,458377	22,350000	51,595000
4,095653	1476,014104	74,454	0,466415	22,350000	51,595000
4,115726	1497,197904	75,456	0,474846	22,350000	51,595000
4,115654	1497,754888	76,460	0,475067	22,360000	51,560000
4,115579	1497,439591	77,462	0,474942	22,360000	51,560000
4,115600	1496,990568	78,463	0,474763	22,350000	51,555000
4,115636	1497,231028	79,467	0,474859	22,350000	51,555000
4,115647	1496,325622	80,473	0,474499	22,350000	51,565000
4,115680	1496,175948	81,475	0,474439	22,350000	51,565000
4,115655	1495,918312	82,478	0,474336	22,350000	51,540000
4,115637	1496,134236	83,480	0,474422	22,350000	51,540000
4,115623	1495,926900	84,484	0,474340	22,360000	51,570000
4,115681	1495,603015	85,488	0,474211	22,360000	51,570000
4,095648	1476,861848	86,490	0,466752	22,360000	51,570000
4,075624	1454,340796	87,492	0,457789	22,360000	51,570000
4,055562	1435,857265	88,497	0,450432	22,350000	51,580000
4,035681	1415,928520	89,500	0,442500	22,350000	51,580000
4,015714	1392,958445	90,502	0,433358	22,350000	51,540000
3,995693	1374,923936	91,503	0,426181	22,350000	51,540000
3,975650	1354,446795	92,504	0,418031	22,350000	51,565000
3,955641	1332,564924	93,505	0,409322	22,350000	51,565000
3,935715	1312,453380	94,509	0,401317	22,350000	51,580000
3,915619	1293,870475	95,513	0,393921	22,350000	51,580000
3,895679	1271,980017	96,516	0,385209	22,350000	51,580000
3,875713	1253,165240	97,519	0,377721	22,350000	51,580000
3,855650	1232,613262	98,520	0,369541	22,350000	51,580000
3,835693	1212,875903	99,521	0,361686	22,350000	51,580000
3,815720	1193,046531	100,526	0,353793	22,350000	51,555000
3,795670	1170,940150	101,529	0,344995	22,350000	51,555000
3,775704	1152,041948	102,531	0,337474	22,350000	51,555000
3,755702	1130,534263	103,533	0,328914	22,350000	51,555000
3,735665	1111,112202	104,535	0,321184	22,350000	51,580000
3,715689	1089,862153	105,536	0,312726	22,350000	51,580000
3,695747	1072,001855	106,538	0,305618	22,350000	51,555000
3,675752	1049,663601	107,543	0,296727	22,350000	51,555000
3,655705	1029,493169	108,547	0,288699	22,350000	51,580000
3,635637	1009,373037	109,549	0,280691	22,350000	51,580000
3,615661	990,915270	110,550	0,273345	22,350000	51,580000
3,595727	968,767176	111,551	0,264530	22,350000	51,580000
3,575725	950,775607	112,552	0,257370	22,350000	51,580000
3,555684	929,050771	113,554	0,248723	22,350000	51,580000
3,535725	908,756429	114,557	0,240646	22,350000	51,595000
3,515758	890,556297	115,558	0,233402	22,350000	51,595000
3,495777	869,074376	116,562	0,224853	22,360000	51,600000
3,475769	848,371496	117,564	0,216613	22,360000	51,600000
3,455739	830,421639	118,569	0,209469	22,350000	51,555000
3,435712	808,987565	119,574	0,200938	22,350000	51,555000
3,415731	788,294500	120,577	0,192702	22,350000	51,565000
3,395710	770,726190	121,580	0,185710	22,350000	51,565000
3,375772	748,419834	122,581	0,176832	22,350000	51,565000
3,355763	729,695842	123,586	0,169380	22,350000	51,565000
3,335775	709,825985	124,587	0,161472	22,350000	51,580000
3,315785	687,994415	125,588	0,152783	22,350000	51,580000
3,295781	668,247242	126,591	0,144923	22,350000	51,595000
3,275833	648,210535	127,594	0,136949	22,350000	51,595000
3,255813	629,860729	128,598	0,129646	22,350000	51,620000
3,235837	608,194783	129,602	0,121022	22,350000	51,620000
3,215856	587,999814	130,606	0,112985	22,350000	51,595000
3,195743	567,780308	131,607	0,104938	22,350000	51,595000
3,175779	549,987486	132,607	0,097856	22,350000	51,580000
3,155801	530,457463	133,612	0,090083	22,350000	51,580000
3,135784	509,116628	134,612	0,081589	22,350000	51,580000
3,115805	489,635678	135,616	0,073836	22,350000	51,580000
3,095765	469,898320	136,619	0,065980	22,360000	51,585000
3,075836	448,855606	137,622	0,057605	22,360000	51,585000
3,055806	428,061941	138,624	0,049330	22,350000	51,595000
3,035829	410,086320	139,626	0,042175	22,350000	51,595000
3,015788	389,152795	140,629	0,033844	22,350000	51,595000
2,995829	370,079156	141,633	0,026252	22,350000	51,595000
2,975803	350,374921	142,637	0,018410	22,360000	51,570000
2,955838	330,279326	143,638	0,010412	22,360000	51,570000
2,935826	310,641341	144,640	0,002596	22,360000	51,570000
2,915852	290,414475	145,643	-0,005454	22,360000	51,570000
2,895820	269,512847	146,647	-0,013773	22,350000	51,595000
2,875801	250,315297	147,650	-0,021414	22,350000	51,595000
2,855882	230,576712	148,650	-0,029270	22,350000	51,580000
2,835822	211,263839	149,653	-0,036956	22,350000	51,580000
2,815844	189,489930	150,657	-0,045622	22,340000	51,580000
2,795835	170,416290	151,662	-0,053213	22,340000	51,580000
2,775855	150,795481	152,665	-0,061022	22,340000	51,580000
2,755855	131,140321	153,666	-0,068845	22,340000	51,580000
2,735797	112,026195	154,670	-0,076453	22,360000	51,585000
2,715840	89,844977	155,676	-0,085281	22,360000	51,585000
2,695821	70,647427	156,678	-0,092921	22,350000	51,595000
2,675828	50,702732	157,680	-0,100859	22,350000	51,595000
2,655823	32,103879	158,681	-0,108262	22,350000	51,565000
2,635824	11,592386	159,683	-0,116425	22,350000	51,565000
2,615811	-8,286059	160,687	-0,124337	22,360000	51,545000