File: Nanoindentation Datenauswertung/data/S_calib/S_calib_1808-2
Quasi static measurement routine
Tip parameters (shape,radius, material...)
18.08.2022

Piezo position[nm]	MEMS displ.[nm]	Time[ms]	Cap [pf]	Temp [°C]	Rh [%]
eoh
2,659931	0,379645	0,199	-0,137498	22,420000	56,260000
2,674893	14,432332	0,500	-0,131624	22,420000	56,260000
2,689975	29,167212	0,801	-0,125465	22,420000	56,260000
2,704950	43,196537	1,103	-0,119601	22,420000	56,260000
2,720015	57,661577	1,404	-0,113554	22,420000	56,260000
2,734964	69,689883	1,704	-0,108526	22,420000	56,260000
2,749951	84,811416	2,007	-0,102206	22,420000	56,260000
2,764947	99,054510	2,307	-0,096252	22,420000	56,260000
2,779955	112,823340	2,608	-0,090497	22,420000	56,260000
2,794995	129,091984	2,925	-0,083696	22,420000	56,260000
2,809953	142,346834	3,244	-0,078156	22,420000	56,260000
2,824953	157,080545	3,546	-0,071997	22,420000	56,260000
2,839887	171,054968	3,847	-0,066156	22,420000	56,260000
2,854918	185,306239	4,147	-0,060199	22,420000	56,260000
2,869869	198,528381	4,449	-0,054672	22,420000	56,260000
2,884924	212,922165	4,750	-0,048655	22,420000	56,260000
2,899916	226,722535	5,051	-0,042887	22,420000	56,260000
2,914978	241,171221	5,352	-0,036847	22,430000	56,250000
2,929981	255,675977	5,656	-0,030784	22,430000	56,250000
2,944963	269,721656	5,957	-0,024913	22,430000	56,250000
2,959919	286,101273	6,258	-0,018066	22,430000	56,250000
2,974965	300,090881	6,559	-0,012219	22,430000	56,250000
2,990022	312,792034	6,888	-0,006910	22,430000	56,250000
3,004895	329,077032	7,191	-0,000103	22,430000	56,250000
3,019926	343,248869	7,494	0,005821	22,430000	56,250000
3,034890	354,809921	7,797	0,010654	22,430000	56,250000
3,049884	369,116094	8,098	0,016634	22,430000	56,250000
3,064950	383,019260	8,413	0,022445	22,430000	56,250000
3,079907	397,223806	8,715	0,028383	22,430000	56,250000
3,094916	413,397830	9,040	0,035144	22,430000	56,250000
3,109923	427,767083	9,352	0,041150	22,430000	56,235000
3,124933	440,199565	9,687	0,046347	22,430000	56,235000
3,139931	454,109739	9,988	0,052161	22,430000	56,235000
3,154975	468,092339	10,290	0,058006	22,430000	56,235000
3,169875	482,272353	10,592	0,063933	22,430000	56,235000
3,184990	496,341395	10,897	0,069814	22,430000	56,235000
3,199905	510,750364	11,199	0,075837	22,430000	56,235000
3,214938	524,479478	11,502	0,081576	22,430000	56,250000
3,229894	539,554286	11,803	0,087877	22,430000	56,250000
3,244898	553,323116	12,105	0,093632	22,430000	56,250000
3,259812	567,367627	12,405	0,099503	22,430000	56,250000
3,274895	581,318686	12,706	0,105334	22,430000	56,250000
3,289914	595,838629	13,006	0,111404	22,430000	56,250000
3,304897	611,831592	13,307	0,118089	22,430000	56,250000
3,319851	625,900634	13,609	0,123970	22,430000	56,250000
3,334811	640,594628	13,910	0,130112	22,430000	56,250000
3,349883	654,386822	14,213	0,135877	22,430000	56,250000
3,364880	666,153465	14,515	0,140795	22,430000	56,250000
3,379867	681,347423	14,817	0,147146	22,430000	56,250000
3,394875	696,152390	15,117	0,153335	22,430000	56,250000
3,409887	710,205078	15,450	0,159209	22,420000	56,250000
3,424839	722,051155	15,751	0,164161	22,420000	56,250000
3,439828	736,816406	16,054	0,170333	22,420000	56,250000
3,454830	752,215956	16,356	0,176770	22,420000	56,250000
3,469928	766,079405	16,656	0,182564	22,420000	56,250000
3,484865	780,796763	16,956	0,188716	22,420000	56,250000
3,499861	793,370589	17,261	0,193972	22,420000	56,250000
3,514833	807,013261	17,579	0,199675	22,420000	56,250000
3,529839	821,588106	17,879	0,205767	22,420000	56,250000
3,544854	835,277503	18,181	0,211489	22,420000	56,250000
3,559808	849,323181	18,482	0,217360	22,420000	56,250000
3,574839	864,001991	18,793	0,223496	22,420000	56,250000
3,589795	877,097974	19,094	0,228970	22,420000	56,250000
3,604810	891,768606	19,400	0,235103	22,430000	56,250000
3,619792	905,466180	19,702	0,240828	22,430000	56,250000
3,634763	920,516457	20,005	0,247119	22,430000	56,250000
3,649815	933,533007	20,305	0,252560	22,430000	56,250000
3,659799	945,331190	20,607	0,257492	22,430000	56,250000
3,659763	944,951546	20,908	0,257333	22,430000	56,250000
3,659794	944,460928	21,210	0,257128	22,430000	56,250000
3,659832	944,049744	21,511	0,256956	22,430000	56,250000
3,659819	944,066098	21,815	0,256963	22,430000	56,250000
3,659795	943,931762	22,125	0,256907	22,430000	56,250000
3,659791	943,733179	22,432	0,256824	22,430000	56,250000
3,659760	943,361711	22,733	0,256668	22,430000	56,250000
3,659755	943,068509	23,037	0,256546	22,430000	56,250000
3,659832	942,862917	23,350	0,256460	22,430000	56,250000
3,659827	942,665502	23,651	0,256377	22,430000	56,250000
3,659778	942,420193	23,953	0,256275	22,430000	56,250000
3,659789	942,277680	24,255	0,256215	22,430000	56,250000
3,659789	942,443556	24,555	0,256285	22,430000	56,250000
3,659793	942,387485	24,857	0,256261	22,430000	56,250000
3,659802	942,103628	25,158	0,256143	22,430000	56,250000
3,659814	941,722815	25,460	0,255983	22,430000	56,260000
3,659810	941,739169	25,763	0,255990	22,430000	56,260000
3,659806	941,303454	26,065	0,255808	22,430000	56,260000
3,659822	941,208835	26,366	0,255769	22,430000	56,260000
3,659796	941,327985	26,667	0,255818	22,430000	56,260000
3,659750	941,122393	26,969	0,255732	22,430000	56,260000
3,659790	940,892270	27,270	0,255636	22,430000	56,235000
3,659806	940,852553	27,570	0,255620	22,430000	56,235000
3,659790	940,449546	27,874	0,255451	22,430000	56,235000
3,659837	940,734571	28,176	0,255570	22,430000	56,235000
3,659795	940,346750	28,476	0,255408	22,430000	56,235000
3,659791	940,346750	28,779	0,255408	22,430000	56,235000
3,659778	940,085087	29,086	0,255299	22,430000	56,235000
3,659764	939,998645	29,389	0,255263	22,430000	56,260000
3,659836	939,856132	29,695	0,255203	22,430000	56,260000
3,659780	939,428594	30,003	0,255024	22,430000	56,260000
3,659808	939,942574	30,304	0,255239	22,430000	56,260000
3,659740	939,879495	30,606	0,255213	22,430000	56,260000
3,644824	927,202873	30,908	0,249914	22,430000	56,260000
3,629840	912,167782	31,209	0,243629	22,430000	56,260000
3,614779	897,584760	31,509	0,237534	22,430000	56,260000
3,599796	884,061238	31,811	0,231881	22,430000	56,260000
3,584775	869,612552	32,113	0,225841	22,430000	56,260000
3,569843	852,734141	32,416	0,218786	22,430000	56,260000
3,554830	838,577490	32,718	0,212869	22,430000	56,260000
3,539768	826,542174	33,020	0,207838	22,430000	56,260000
3,524811	810,146204	33,323	0,200984	22,430000	56,235000
3,509834	797,936836	33,625	0,195881	22,430000	56,235000
3,494847	781,817715	33,927	0,189143	22,430000	56,235000
3,479843	768,682014	34,235	0,183652	22,430000	56,235000
3,464815	754,778848	34,543	0,177841	22,430000	56,235000
3,449856	740,424781	34,852	0,171841	22,430000	56,235000
3,434869	725,952733	35,153	0,165792	22,430000	56,235000
3,419878	709,342993	35,461	0,158849	22,430000	56,235000
3,404817	697,299501	35,763	0,153814	22,430000	56,235000
3,389863	681,813509	36,064	0,147341	22,430000	56,235000
3,374797	666,058846	36,366	0,140756	22,430000	56,235000
3,359861	653,722152	36,668	0,135599	22,430000	56,235000
3,344911	637,912586	36,974	0,128991	22,430000	56,235000
3,329844	623,194060	37,279	0,122838	22,430000	56,235000
3,314851	609,544380	37,581	0,117133	22,430000	56,235000
3,299812	597,010270	37,883	0,111894	22,430000	56,235000
3,284869	581,500916	38,202	0,105411	22,430000	56,235000
3,269874	568,824294	38,510	0,100112	22,430000	56,235000
3,254936	552,547473	38,817	0,093308	22,430000	56,235000
3,239901	538,074256	39,118	0,087258	22,430000	56,235000
3,224872	525,919791	39,420	0,082178	22,430000	56,235000
3,209879	511,842573	39,723	0,076293	22,430000	56,235000
3,194871	497,829602	40,024	0,070436	22,430000	56,235000
3,179824	482,794511	40,325	0,064151	22,430000	56,235000
3,164926	469,184547	40,627	0,058462	22,430000	56,235000
3,149897	454,869028	40,928	0,052479	22,430000	56,235000
3,134875	441,013756	41,228	0,046687	22,430000	56,235000
3,119930	426,477460	41,530	0,040611	22,430000	56,235000
3,104892	412,638541	41,830	0,034826	22,430000	56,235000
3,089885	398,180510	42,130	0,028783	22,430000	56,235000
3,074918	381,689920	42,433	0,021890	22,430000	56,235000
3,059908	367,217872	42,734	0,015840	22,430000	56,235000
3,044936	355,181388	43,044	0,010809	22,430000	56,235000
3,029931	341,374009	43,354	0,005038	22,430000	56,275000
3,014910	327,248897	43,655	-0,000867	22,430000	56,275000
2,999866	312,578265	43,956	-0,006999	22,430000	56,275000
2,984933	296,561939	44,275	-0,013694	22,430000	56,275000
2,969887	283,054772	44,577	-0,019340	22,430000	56,275000
2,954914	270,426043	44,880	-0,024619	22,430000	56,275000
2,939927	255,826667	45,183	-0,030721	22,430000	56,275000
2,924910	241,946864	45,487	-0,036523	22,430000	56,235000
2,909938	227,877822	45,787	-0,042404	22,430000	56,235000
2,894961	213,840320	46,088	-0,048271	22,430000	56,235000
2,879957	199,391634	46,389	-0,054311	22,430000	56,235000
2,864950	185,757140	46,689	-0,060010	22,430000	56,235000
2,849944	169,021241	46,991	-0,067006	22,430000	56,235000
2,834941	157,206704	47,305	-0,071944	22,430000	56,235000
2,819955	142,900531	47,617	-0,077924	22,430000	56,235000
2,804934	128,593189	47,918	-0,083905	22,430000	56,235000
2,789933	112,704190	48,227	-0,090546	22,430000	56,235000
2,774984	99,102404	48,533	-0,096232	22,430000	56,235000
2,759922	84,866318	48,834	-0,102183	22,430000	56,235000
2,744952	72,696668	49,134	-0,107270	22,430000	56,235000
2,729956	56,854394	49,434	-0,113892	22,430000	56,235000
2,714893	44,447611	49,734	-0,119078	22,430000	56,235000
2,699895	30,536268	50,036	-0,124893	22,430000	56,235000
2,685006	16,419333	50,339	-0,130793	22,430000	56,235000
2,669921	1,914576	50,654	-0,136856	22,430000	56,235000
2,659983	-7,240113	50,858	-0,140683	22,430000	56,235000