File: Nanoindentation Datenauswertung/data/S_calib/S_calib_0809-1
Quasi static measurement routine
Tip parameters (shape,radius, material...)
08.09.2022

Piezo position[nm]	MEMS displ.[nm]	Time[ms]	Cap [pf]	Temp [°C]	Rh [%]
eoh
2,339850	-0,481289	0,216	-0,063023	22,490000	54,590000
2,362917	23,169470	3,673	-0,053114	22,480000	54,590000
2,385927	46,038279	7,134	-0,043532	22,480000	54,605000
2,408912	68,505044	10,588	-0,034118	22,480000	54,565000
2,431886	92,834036	14,046	-0,023924	22,490000	54,575000
2,454874	115,016455	17,500	-0,014630	22,490000	54,575000
2,477903	139,070424	20,958	-0,004551	22,490000	54,575000
2,500869	161,386859	24,410	0,004799	22,480000	54,590000
2,523937	184,736957	27,865	0,014583	22,490000	54,605000
2,546916	208,111529	31,320	0,024377	22,490000	54,605000
2,569873	230,957031	34,779	0,033949	22,490000	54,615000
2,592925	254,615948	38,235	0,043862	22,480000	54,590000
2,615920	277,950897	41,690	0,053640	22,480000	54,605000
2,638881	301,206602	45,148	0,063384	22,480000	54,605000
2,661886	324,336450	48,606	0,073075	22,500000	54,620000
2,684915	348,350798	52,060	0,083137	22,480000	54,575000
2,707931	370,391045	55,517	0,092372	22,500000	54,580000
2,730939	394,073268	58,977	0,102295	22,490000	54,615000
2,753908	416,184601	62,435	0,111560	22,480000	54,605000
2,776864	440,080083	65,889	0,121572	22,480000	54,590000
2,799881	463,517583	69,347	0,131392	22,490000	54,565000
2,822927	486,860690	72,805	0,141173	22,480000	54,575000
2,845848	509,721342	76,260	0,150751	22,480000	54,550000
2,868905	532,100705	79,720	0,160128	22,490000	54,590000
2,891938	555,341261	83,181	0,169866	22,490000	54,590000
2,914856	579,213436	86,635	0,179869	22,490000	54,565000
2,937905	602,192954	90,088	0,189497	22,490000	54,615000
2,960900	624,469766	93,547	0,198831	22,490000	54,575000
2,983916	648,310477	97,004	0,208820	22,490000	54,575000
3,006833	670,626911	100,458	0,218171	22,480000	54,590000
3,029871	694,072569	103,914	0,227995	22,490000	54,575000
3,052839	717,951736	107,372	0,238000	22,500000	54,610000
3,075856	741,247063	110,832	0,247761	22,480000	54,605000
3,098872	763,445797	114,288	0,257062	22,480000	54,565000
3,121865	787,301658	117,751	0,267058	22,480000	54,605000
3,144900	809,649556	121,206	0,276421	22,480000	54,605000
3,167858	832,850490	124,664	0,286143	22,480000	54,605000
3,190803	856,375392	128,119	0,296000	22,480000	54,590000
3,213793	879,978371	131,574	0,305889	22,490000	54,590000
3,236882	903,424029	135,028	0,315713	22,490000	54,590000
3,259825	926,166981	138,485	0,325242	22,480000	54,605000
3,282907	948,728138	141,938	0,334695	22,490000	54,590000
3,305818	973,002359	145,394	0,344866	22,480000	54,605000
3,328830	994,387679	148,849	0,353827	22,490000	54,590000
3,351831	1018,883316	152,307	0,364090	22,480000	54,590000
3,374810	1041,388537	155,760	0,373520	22,490000	54,575000
3,397796	1064,566164	159,216	0,383231	22,480000	54,590000
3,420829	1087,529367	162,671	0,392853	22,490000	54,605000
3,443855	1111,385227	166,124	0,402849	22,500000	54,610000
3,466813	1134,776113	169,579	0,412649	22,490000	54,605000
3,489792	1157,155476	173,035	0,422026	22,490000	54,605000
3,512789	1180,333103	176,493	0,431738	22,480000	54,590000
3,535771	1204,512931	179,949	0,441869	22,490000	54,605000
3,558743	1226,552012	183,402	0,451104	22,490000	54,575000
3,581821	1250,093228	186,856	0,460967	22,490000	54,630000
3,604794	1273,246383	190,316	0,470668	22,490000	54,590000
3,627726	1296,288829	193,774	0,480323	22,480000	54,590000
3,650775	1320,452342	197,228	0,490448	22,480000	54,590000
3,673813	1343,377088	200,685	0,500053	22,480000	54,605000
3,696775	1366,467314	204,140	0,509728	22,490000	54,590000
3,719725	1389,337289	207,597	0,519311	22,480000	54,590000
3,742744	1413,247921	211,055	0,529329	22,490000	54,565000
3,765760	1435,233396	214,510	0,538541	22,490000	54,590000
3,788798	1458,085891	217,968	0,548116	22,490000	54,605000
3,811747	1482,487135	221,424	0,558340	22,490000	54,615000
3,834748	1504,598467	224,884	0,567605	22,490000	54,590000
3,857818	1527,870488	228,342	0,577356	22,480000	54,590000
3,880762	1550,928084	231,797	0,587017	22,490000	54,590000
3,903791	1574,184955	235,250	0,596762	22,480000	54,615000
3,926699	1598,159681	238,709	0,606807	22,490000	54,615000
3,949798	1620,262856	242,165	0,616068	22,480000	54,605000
3,972801	1643,882151	245,619	0,625965	22,480000	54,615000
3,995751	1666,939747	249,076	0,635626	22,480000	54,615000
4,018773	1689,778257	252,534	0,645195	22,490000	54,615000
4,041728	1713,870684	255,990	0,655290	22,480000	54,575000
4,064748	1736,621793	259,446	0,664823	22,480000	54,615000
4,087736	1759,135171	262,905	0,674256	22,480000	54,615000
4,110798	1782,068075	266,358	0,683865	22,490000	54,575000
4,133740	1806,436689	269,815	0,694075	22,500000	54,610000
4,156792	1829,361435	273,272	0,703681	22,490000	54,590000
4,179713	1852,079915	276,728	0,713200	22,490000	54,565000
4,202709	1875,786611	280,184	0,723133	22,480000	54,590000
4,225669	1899,073781	283,639	0,732890	22,480000	54,575000
4,248690	1922,084763	287,093	0,742532	22,490000	54,605000
4,271656	1945,389413	290,550	0,752296	22,480000	54,615000
4,294719	1967,468116	294,009	0,761547	22,480000	54,605000
4,317663	1991,664258	297,465	0,771686	22,490000	54,645000
4,339698	2013,640411	300,923	0,780894	22,490000	54,645000
4,322668	1996,487638	304,377	0,773707	22,480000	54,605000
4,299670	1973,830922	307,834	0,764213	22,500000	54,620000
4,276727	1950,748853	311,291	0,754542	22,500000	54,620000
4,253752	1927,642312	314,745	0,744860	22,480000	54,605000
4,230759	1902,942739	318,198	0,734511	22,480000	54,575000
4,207748	1879,756955	321,653	0,724796	22,480000	54,605000
4,184703	1856,453470	325,109	0,715032	22,480000	54,575000
4,161731	1833,592818	328,563	0,705454	22,490000	54,575000
4,138719	1811,251911	332,018	0,696093	22,480000	54,590000
4,115730	1787,583672	335,471	0,686176	22,490000	54,565000
4,092721	1764,132188	338,930	0,676350	22,480000	54,590000
4,069691	1741,065269	342,386	0,666685	22,480000	54,605000
4,046818	1717,771107	345,840	0,656924	22,500000	54,620000
4,023661	1694,206584	349,299	0,647051	22,490000	54,605000
4,000732	1670,777241	352,754	0,637234	22,490000	54,590000
3,977754	1646,857287	356,209	0,627211	22,480000	54,630000
3,954808	1624,745954	359,668	0,617947	22,490000	54,605000
3,931740	1600,993810	363,120	0,607995	22,490000	54,605000
3,908749	1577,816183	366,579	0,598283	22,480000	54,605000
3,885736	1554,165424	370,034	0,588374	22,480000	54,590000
3,862791	1531,328078	373,490	0,578805	22,490000	54,590000
3,839763	1507,652847	376,946	0,568885	22,480000	54,660000
3,816726	1483,332013	380,401	0,558694	22,490000	54,615000
3,793713	1460,304715	383,855	0,549046	22,490000	54,575000
3,770791	1437,237796	387,312	0,539381	22,490000	54,605000
3,747785	1414,226814	390,767	0,529739	22,490000	54,605000
3,724837	1391,128431	394,222	0,520061	22,490000	54,575000
3,701768	1368,038205	397,682	0,510386	22,490000	54,575000
3,678825	1344,521461	401,141	0,500533	22,480000	54,575000
3,655786	1321,526794	404,594	0,490898	22,480000	54,630000
3,632837	1297,867877	408,049	0,480985	22,490000	54,590000
3,609829	1274,966438	411,508	0,471389	22,480000	54,605000
3,586849	1251,340151	414,963	0,461490	22,480000	54,660000
3,563843	1228,534271	418,420	0,451934	22,500000	54,595000
3,540876	1204,614316	421,877	0,441912	22,490000	54,590000
3,517780	1181,381918	425,334	0,432177	22,490000	54,605000
3,494824	1158,726367	428,789	0,422685	22,490000	54,605000
3,471815	1134,222572	432,245	0,412417	22,480000	54,605000
3,448801	1111,022804	435,697	0,402697	22,480000	54,590000
3,425854	1088,334623	439,151	0,393190	22,480000	54,590000
3,402841	1065,363263	442,604	0,383565	22,490000	54,590000
3,379856	1042,011998	446,060	0,373781	22,500000	54,595000
3,356839	1017,871793	449,519	0,363667	22,480000	54,605000
3,333839	995,224400	452,976	0,354177	22,490000	54,630000
3,310870	971,099344	456,434	0,344069	22,490000	54,615000
3,287853	948,782909	459,895	0,334718	22,480000	54,605000
3,264888	924,816341	463,349	0,324676	22,480000	54,605000
3,241909	901,782052	466,807	0,315025	22,480000	54,630000
3,218872	878,976171	470,264	0,305469	22,480000	54,575000
3,195883	855,940716	473,720	0,295817	22,480000	54,615000
3,172923	832,202556	477,179	0,285871	22,480000	54,615000
3,149892	809,404833	480,632	0,276319	22,480000	54,605000
3,126957	785,075841	484,088	0,266125	22,480000	54,615000
3,103896	762,672006	487,540	0,256738	22,490000	54,590000
3,080926	738,452556	490,998	0,246590	22,490000	54,590000
3,057930	715,568597	494,456	0,237001	22,480000	54,565000
3,034866	692,414277	497,913	0,227300	22,500000	54,620000
3,011936	669,024556	501,366	0,217500	22,500000	54,580000
2,988927	645,934330	504,822	0,207825	22,500000	54,595000
2,965947	621,817432	508,277	0,197720	22,490000	54,575000
2,942923	598,601348	511,733	0,187992	22,480000	54,590000
2,919927	575,850239	515,191	0,178459	22,480000	54,590000
2,896873	552,500140	518,644	0,168676	22,490000	54,605000
2,873936	530,364335	522,105	0,159401	22,490000	54,590000
2,850904	506,895370	525,561	0,149567	22,480000	54,615000
2,827900	482,249403	529,015	0,139241	22,500000	54,595000
2,804919	460,202165	532,469	0,130003	22,480000	54,630000
2,781921	437,040852	535,924	0,120298	22,490000	54,575000
2,758892	413,145370	539,380	0,110286	22,490000	54,575000
2,735971	390,354639	542,837	0,100737	22,500000	54,610000
2,712950	367,366964	546,294	0,091105	22,490000	54,615000
2,689916	343,227924	549,749	0,080991	22,480000	54,590000
2,667003	321,376464	553,201	0,071835	22,480000	54,590000
2,643898	297,867877	556,656	0,061985	22,480000	54,605000
2,620963	273,949088	560,115	0,051963	22,480000	54,615000
2,597954	251,947298	563,569	0,042744	22,490000	54,615000
2,574914	228,423562	567,027	0,032888	22,480000	54,575000
2,551930	204,582852	570,484	0,022898	22,490000	54,590000
2,529012	181,816593	573,936	0,013359	22,480000	54,590000
2,505935	158,916319	577,407	0,003764	22,510000	54,595000
2,482981	135,968265	580,862	-0,005851	22,480000	54,605000
2,459930	112,679930	584,320	-0,015609	22,500000	54,580000
2,436970	88,279852	587,777	-0,025833	22,490000	54,605000
2,413968	66,271070	591,231	-0,035054	22,490000	54,605000
2,390955	42,446674	594,683	-0,045037	22,480000	54,590000
2,367941	19,758493	598,138	-0,054543	22,490000	54,605000
2,344986	-3,591606	601,592	-0,064327	22,470000	54,590000
2,339938	-8,542009	602,342	-0,066401	22,470000	54,590000