File: Nanoindentation Datenauswertung/data/S_calib/S_calib_2208-2
Quasi static measurement routine
Tip parameters (shape,radius, material...)
22.08.2022

Piezo position[nm]	MEMS displ.[nm]	Time[ms]	Cap [pf]	Temp [°C]	Rh [%]
eoh
2,589985	-0,427538	0,214	-0,135900	22,370000	52,345000
2,601663	11,347282	0,576	-0,130979	22,370000	52,345000
2,613323	22,781007	0,963	-0,126199	22,380000	52,320000
2,625023	33,083975	1,316	-0,121893	22,380000	52,320000
2,636646	44,928884	1,669	-0,116941	22,380000	52,320000
2,648414	54,726049	2,021	-0,112846	22,380000	52,320000
2,659983	66,991487	2,371	-0,107719	22,380000	52,320000
2,671663	78,607441	2,725	-0,102864	22,380000	52,320000
2,683334	88,284287	3,080	-0,098819	22,380000	52,320000
2,694970	100,834751	3,432	-0,093573	22,380000	52,320000
2,706642	110,416978	3,782	-0,089567	22,380000	52,320000
2,718257	123,347086	4,133	-0,084163	22,380000	52,320000
2,729984	134,860244	4,486	-0,079350	22,380000	52,320000
2,741584	144,229871	4,839	-0,075434	22,380000	52,320000
2,753319	156,818883	5,189	-0,070171	22,380000	52,305000
2,765037	166,401110	5,540	-0,066166	22,380000	52,305000
2,776636	178,073135	5,893	-0,061287	22,380000	52,305000
2,788283	190,116627	6,244	-0,056253	22,380000	52,305000
2,800010	199,983880	6,595	-0,052128	22,380000	52,305000
2,811690	212,613777	6,948	-0,046849	22,380000	52,320000
2,823306	221,745103	7,302	-0,043032	22,380000	52,320000
2,835013	233,662436	7,655	-0,038051	22,380000	52,320000
2,846624	244,550641	8,005	-0,033500	22,380000	52,320000
2,858285	255,652615	8,358	-0,028859	22,380000	52,320000
2,869975	266,413492	8,710	-0,024361	22,380000	52,320000
2,881650	277,429024	9,062	-0,019756	22,380000	52,345000
2,893300	288,522821	9,412	-0,015119	22,380000	52,345000
2,905000	301,317425	9,764	-0,009771	22,380000	52,345000
2,916640	310,924183	10,117	-0,005755	22,380000	52,345000
2,928288	323,307603	10,469	-0,000579	22,380000	52,345000
2,939949	332,771849	10,822	0,003377	22,380000	52,345000
2,951593	344,309538	11,174	0,008200	22,380000	52,345000
2,963298	355,957031	11,527	0,013068	22,380000	52,345000
2,975017	367,952630	11,879	0,018083	22,380000	52,345000
2,986637	378,263775	12,232	0,022393	22,380000	52,345000
2,998301	390,093498	12,584	0,027337	22,380000	52,345000
3,009914	399,581106	12,938	0,031303	22,370000	52,345000
3,021574	411,751925	13,288	0,036391	22,370000	52,345000
3,033262	421,523391	13,641	0,040475	22,370000	52,345000
3,044953	434,478030	13,992	0,045890	22,370000	52,345000
3,056606	445,270447	14,346	0,050401	22,370000	52,345000
3,068242	455,106160	14,696	0,054513	22,370000	52,345000
3,080042	466,952237	15,049	0,059464	22,380000	52,345000
3,091578	477,326462	15,399	0,063801	22,380000	52,345000
3,103252	488,697107	15,750	0,068554	22,380000	52,345000
3,114945	500,535007	16,102	0,073502	22,380000	52,345000
3,126644	512,475703	16,454	0,078493	22,380000	52,345000
3,138309	521,837152	16,808	0,082406	22,380000	52,345000
3,149929	534,410979	17,162	0,087662	22,370000	52,345000
3,161601	544,096002	17,513	0,091710	22,370000	52,345000
3,173280	556,606749	17,865	0,096940	22,370000	52,345000
3,184925	567,937678	18,218	0,101676	22,370000	52,345000
3,196606	578,050239	18,569	0,105903	22,370000	52,345000
3,208251	589,105487	18,921	0,110524	22,370000	52,335000
3,219895	600,096488	19,273	0,115119	22,370000	52,335000
3,231584	611,095666	19,625	0,119716	22,370000	52,335000
3,243192	623,716217	19,978	0,124992	22,370000	52,335000
3,254939	633,465489	20,331	0,129067	22,370000	52,335000
3,266581	644,899213	20,681	0,133846	22,370000	52,335000
3,278259	657,156474	21,032	0,138970	22,370000	52,295000
3,289888	666,874206	21,384	0,143032	22,370000	52,295000
3,301572	679,391961	21,739	0,148264	22,370000	52,295000
3,313225	689,418081	22,091	0,152455	22,370000	52,295000
3,324898	701,262990	22,442	0,157406	22,370000	52,295000
3,336544	711,035624	22,793	0,161491	22,370000	52,295000
3,348235	722,628215	23,146	0,166337	22,380000	52,305000
3,359930	734,853936	23,499	0,171447	22,380000	52,305000
3,371531	744,294819	23,852	0,175394	22,380000	52,305000
3,383192	755,357076	24,203	0,180018	22,380000	52,305000
3,394876	766,616748	24,555	0,184724	22,380000	52,305000
3,406582	779,412521	24,909	0,190073	22,380000	52,320000
3,418170	789,057827	25,262	0,194104	22,380000	52,320000
3,429848	800,325677	25,612	0,198814	22,380000	52,320000
3,441518	811,444004	25,963	0,203462	22,380000	52,320000
3,453259	824,017830	26,315	0,208718	22,380000	52,320000
3,464862	833,845367	26,667	0,212826	22,380000	52,320000
3,476535	844,867907	27,019	0,217433	22,380000	52,320000
3,488153	855,804005	27,376	0,222004	22,380000	52,320000
3,499880	868,535530	27,729	0,227326	22,380000	52,320000
3,511544	878,863029	28,080	0,231643	22,380000	52,320000
3,523183	889,196368	28,432	0,235962	22,380000	52,320000
3,534827	901,889345	28,784	0,241268	22,380000	52,320000
3,546514	912,397905	29,138	0,245661	22,380000	52,345000
3,558160	922,700873	29,491	0,249967	22,380000	52,345000
3,569824	933,794670	29,841	0,254604	22,380000	52,345000
3,581473	946,811220	30,193	0,260045	22,380000	52,345000
3,589817	954,145952	30,545	0,263111	22,380000	52,345000
3,589795	953,980076	30,898	0,263042	22,380000	52,345000
3,589809	953,806024	31,257	0,262969	22,370000	52,320000
3,584821	948,788876	31,609	0,260872	22,370000	52,320000
3,573139	938,661128	31,959	0,256639	22,370000	52,320000
3,561489	927,622234	32,310	0,252024	22,370000	52,320000
3,549867	914,337012	32,662	0,246471	22,370000	52,320000
3,538186	905,109898	33,017	0,242614	22,380000	52,335000
3,526510	892,425099	33,369	0,237312	22,380000	52,335000
3,514805	882,130308	33,720	0,233009	22,380000	52,335000
3,503176	870,751486	34,071	0,228252	22,380000	52,335000
3,491536	859,404203	34,422	0,223509	22,380000	52,335000
3,479876	847,708816	34,776	0,218621	22,380000	52,335000
3,468203	836,717815	35,136	0,214026	22,370000	52,335000
3,456512	825,093685	35,490	0,209167	22,370000	52,335000
3,444876	813,857375	35,842	0,204471	22,370000	52,335000
3,433202	802,732039	36,195	0,199820	22,370000	52,335000
3,421504	791,368402	36,549	0,195070	22,370000	52,335000
3,409890	780,575985	36,903	0,190559	22,370000	52,335000
3,398177	769,061659	37,257	0,185746	22,370000	52,335000
3,386511	757,223759	37,610	0,180798	22,370000	52,335000
3,374900	745,488655	37,963	0,175893	22,370000	52,335000
3,363204	735,962498	38,315	0,171911	22,370000	52,335000
3,351533	722,802267	38,665	0,166410	22,370000	52,335000
3,339867	712,895298	39,015	0,162269	22,380000	52,345000
3,328237	700,385719	39,365	0,157040	22,380000	52,345000
3,316545	690,881757	39,719	0,153067	22,380000	52,345000
3,304944	678,695752	40,070	0,147973	22,380000	52,345000
3,293241	668,392784	40,422	0,143667	22,380000	52,345000
3,281553	657,425146	40,780	0,139082	22,380000	52,345000
3,269932	645,508981	41,132	0,134101	22,390000	52,345000
3,258262	633,457312	41,482	0,129063	22,390000	52,345000
3,246537	623,644961	41,840	0,124962	22,390000	52,345000
3,234924	612,029007	42,193	0,120106	22,390000	52,345000
3,223295	601,220236	42,545	0,115588	22,390000	52,345000
3,211544	588,456003	42,901	0,110253	22,390000	52,345000
3,199887	578,628467	43,252	0,106145	22,380000	52,345000
3,188271	567,534670	43,605	0,101508	22,380000	52,345000
3,176587	554,929304	43,957	0,096239	22,380000	52,345000
3,164935	543,787614	44,312	0,091582	22,380000	52,345000
3,153265	532,922772	44,663	0,087040	22,380000	52,345000
3,141581	522,944546	45,014	0,082869	22,380000	52,345000
3,129895	511,494468	45,366	0,078083	22,380000	52,345000
3,118321	501,033801	45,717	0,073710	22,380000	52,345000
3,106553	489,646802	46,068	0,068951	22,380000	52,345000
3,094920	478,553005	46,421	0,064313	22,380000	52,345000
3,083259	465,820313	46,771	0,058991	22,380000	52,345000
3,071649	456,269625	47,122	0,054999	22,380000	52,335000
3,059928	443,221535	47,472	0,049545	22,380000	52,335000
3,048309	433,749112	47,830	0,045585	22,380000	52,335000
3,036577	422,101619	48,187	0,040717	22,380000	52,335000
3,024914	411,410829	48,540	0,036248	22,380000	52,335000
3,013198	398,616225	48,892	0,030900	22,380000	52,335000
3,001595	388,986104	49,255	0,026875	22,380000	52,335000
2,989896	377,860767	49,608	0,022224	22,380000	52,335000
2,978300	366,299716	49,961	0,017392	22,380000	52,335000
2,966627	354,485179	50,312	0,012453	22,380000	52,335000
2,954915	343,905362	50,663	0,008031	22,380000	52,335000
2,943313	333,950499	51,018	0,003870	22,370000	52,345000
2,931537	321,029736	51,374	-0,001531	22,370000	52,345000
2,919924	311,620393	51,729	-0,005464	22,370000	52,345000
2,908267	299,323415	52,080	-0,010604	22,370000	52,345000
2,896625	287,707461	52,431	-0,015460	22,370000	52,345000
2,884953	277,856562	52,782	-0,019578	22,370000	52,345000
2,873264	267,205489	53,140	-0,024030	22,380000	52,335000
2,861644	254,346638	53,491	-0,029405	22,380000	52,335000
2,849981	244,756233	53,843	-0,033414	22,380000	52,335000
2,838339	234,002364	54,197	-0,037909	22,380000	52,335000
2,826594	221,405175	54,550	-0,043174	22,380000	52,335000
2,814964	211,893036	54,903	-0,047150	22,380000	52,335000
2,803286	199,406820	55,253	-0,052370	22,380000	52,305000
2,791617	189,579284	55,605	-0,056478	22,380000	52,305000
2,779927	177,219227	55,957	-0,061644	22,380000	52,305000
2,768252	167,279549	56,319	-0,065799	22,380000	52,305000
2,756674	156,376159	56,672	-0,070356	22,380000	52,305000
2,744956	144,767214	57,022	-0,075209	22,390000	52,335000
2,733304	134,377804	57,372	-0,079552	22,390000	52,335000
2,721611	123,315547	57,726	-0,084176	22,390000	52,335000
2,709931	110,915773	58,079	-0,089359	22,390000	52,335000
2,698295	101,071882	58,430	-0,093474	22,390000	52,335000
2,686695	89,756140	58,782	-0,098204	22,390000	52,335000
2,675027	77,293286	59,135	-0,103413	22,380000	52,320000
2,663316	66,159773	59,487	-0,108067	22,380000	52,320000
2,651602	56,023849	59,839	-0,112304	22,380000	52,320000
2,639983	44,739646	60,200	-0,117021	22,380000	52,320000
2,628327	34,113104	60,552	-0,121462	22,380000	52,320000
2,616627	22,883803	60,905	-0,126156	22,380000	52,320000
2,604984	10,041305	61,269	-0,131524	22,380000	52,320000
2,593375	-0,047894	61,619	-0,135742	22,380000	52,320000
2,589965	-3,117758	61,719	-0,137025	22,380000	52,320000