File: Nanoindentation Datenauswertung/data/S_calib/S_calib_2208-1
Quasi static measurement routine
Tip parameters (shape,radius, material...)
22.08.2022

Piezo position[nm]	MEMS displ.[nm]	Time[ms]	Cap [pf]	Temp [°C]	Rh [%]
eoh
2,590066	0,316565	0,193	-0,132695	22,380000	52,345000
2,613326	19,394578	0,581	-0,124721	22,380000	52,345000
2,636639	41,772578	0,986	-0,115367	22,380000	52,345000
2,659964	66,547595	1,339	-0,105011	22,380000	52,345000
2,683299	89,804033	1,692	-0,095290	22,380000	52,345000
2,706679	108,882046	2,061	-0,087315	22,380000	52,345000
2,730007	131,924716	2,413	-0,077683	22,380000	52,345000
2,753290	154,350609	2,767	-0,068309	22,380000	52,345000
2,776677	178,691079	3,125	-0,058135	22,380000	52,345000
2,800039	198,448948	3,475	-0,049876	22,380000	52,345000
2,823282	223,137522	3,828	-0,039556	22,380000	52,345000
2,846642	243,355637	4,178	-0,031105	22,380000	52,345000
2,869988	268,874757	4,534	-0,020438	22,380000	52,345000
2,893291	291,149961	4,884	-0,011127	22,380000	52,345000
2,916574	310,426557	5,234	-0,003069	22,380000	52,345000
2,940025	335,969040	5,592	0,007607	22,380000	52,345000
2,963273	355,466414	5,946	0,015757	22,370000	52,345000
2,986629	377,171567	6,298	0,024830	22,370000	52,345000
3,009934	400,649951	6,649	0,034644	22,370000	52,345000
3,033313	422,283848	7,032	0,043687	22,370000	52,345000
3,056600	445,066023	7,385	0,053210	22,370000	52,345000
3,079897	466,826078	7,736	0,062306	22,370000	52,345000
3,103246	489,497281	8,088	0,071782	22,380000	52,360000
3,126571	513,188266	8,441	0,081685	22,380000	52,360000
3,149952	533,975264	8,793	0,090374	22,380000	52,360000
3,173273	558,332087	9,144	0,100555	22,380000	52,360000
3,196643	578,565388	9,497	0,109013	22,380000	52,360000
3,219894	601,101086	9,848	0,118433	22,380000	52,360000
3,243250	626,200845	10,199	0,128924	22,380000	52,320000
3,266576	645,493795	10,552	0,136989	22,380000	52,320000
3,289922	669,809734	10,904	0,147153	22,380000	52,320000
3,313221	690,264980	11,255	0,155703	22,380000	52,320000
3,336578	713,607861	11,605	0,165460	22,380000	52,320000
3,359867	734,949723	11,957	0,174381	22,370000	52,335000
3,383297	757,105777	12,309	0,183643	22,370000	52,335000
3,406505	779,380981	12,662	0,192954	22,370000	52,335000
3,429873	805,082330	13,015	0,203697	22,370000	52,335000
3,453236	825,292268	13,383	0,212145	22,370000	52,335000
3,476553	845,960115	13,735	0,220784	22,370000	52,335000
3,499865	869,493402	14,085	0,230621	22,370000	52,335000
3,523227	894,016102	14,436	0,240871	22,370000	52,335000
3,546522	913,078929	14,795	0,248839	22,370000	52,335000
3,569838	935,669529	15,146	0,258282	22,370000	52,335000
3,593205	960,184052	15,498	0,268529	22,370000	52,335000
3,616516	980,204751	15,849	0,276898	22,370000	52,335000
3,639810	1003,808126	16,201	0,286764	22,370000	52,320000
3,663231	1027,026017	16,552	0,296469	22,370000	52,320000
3,686501	1047,362113	16,904	0,304970	22,370000	52,320000
3,709801	1072,239926	17,256	0,315369	22,370000	52,320000
3,733160	1091,428912	17,606	0,323390	22,370000	52,320000
3,756511	1113,538240	17,959	0,332631	22,370000	52,320000
3,779899	1138,851768	18,316	0,343212	22,370000	52,320000
3,803145	1158,357319	18,668	0,351366	22,370000	52,320000
3,826487	1180,544913	19,019	0,360640	22,370000	52,320000
3,849798	1205,929697	19,371	0,371251	22,370000	52,320000
3,873113	1225,411885	19,740	0,379395	22,370000	52,320000
3,896490	1250,471927	20,092	0,389870	22,380000	52,360000
3,919861	1269,700630	20,445	0,397907	22,380000	52,360000
3,943102	1293,170838	20,801	0,407718	22,380000	52,360000
3,966476	1314,536063	21,154	0,416648	22,380000	52,360000
3,989793	1336,818275	21,505	0,425962	22,380000	52,360000
4,013136	1360,755738	21,857	0,435968	22,380000	52,360000
4,036487	1381,226170	22,208	0,444525	22,370000	52,345000
4,059817	1404,300379	22,560	0,454170	22,370000	52,345000
4,083160	1426,646839	22,915	0,463511	22,370000	52,345000
4,106448	1447,916277	23,271	0,472401	22,370000	52,345000
4,129809	1473,348955	23,624	0,483032	22,370000	52,345000
4,153190	1492,720170	23,975	0,491129	22,370000	52,320000
4,176434	1514,662455	24,327	0,500301	22,370000	52,320000
4,199787	1537,610506	24,679	0,509894	22,370000	52,320000
4,223156	1559,046987	25,034	0,518854	22,370000	52,320000
4,246460	1584,819593	25,387	0,529627	22,370000	52,320000
4,269693	1603,755093	25,739	0,537542	22,370000	52,320000
4,293020	1627,588592	26,093	0,547504	22,380000	52,335000
4,316426	1648,272793	26,447	0,556150	22,380000	52,335000
4,339745	1671,007074	26,798	0,565653	22,380000	52,335000
4,363056	1695,268111	27,149	0,575794	22,380000	52,335000
4,386400	1714,521344	27,501	0,583842	22,380000	52,335000
4,409723	1737,151662	27,881	0,593302	22,380000	52,335000
4,433038	1759,403503	28,233	0,602603	22,380000	52,320000
4,456386	1783,268541	28,591	0,612579	22,380000	52,320000
4,479716	1805,797230	28,943	0,621996	22,380000	52,320000
4,503021	1826,386812	29,295	0,630602	22,380000	52,320000
4,526426	1848,012532	29,648	0,639642	22,380000	52,320000
4,549692	1873,428856	30,003	0,650266	22,390000	52,360000
4,572984	1892,800071	30,353	0,658363	22,390000	52,360000
4,589713	1911,498439	30,704	0,666179	22,390000	52,360000
4,589702	1911,316210	31,056	0,666103	22,390000	52,360000
4,589738	1910,825592	31,407	0,665897	22,390000	52,360000
4,579640	1904,028203	31,759	0,663056	22,390000	52,360000
4,556340	1877,900484	32,115	0,652135	22,380000	52,345000
4,533054	1855,474591	32,466	0,642761	22,380000	52,345000
4,509687	1835,684014	32,816	0,634488	22,380000	52,345000
4,486352	1811,240748	33,169	0,624271	22,380000	52,345000
4,463015	1788,705050	33,522	0,614851	22,380000	52,345000
4,439762	1766,207900	33,876	0,605447	22,380000	52,345000
4,416380	1743,030895	34,228	0,595759	22,380000	52,345000
4,393081	1722,338517	34,581	0,587110	22,380000	52,345000
4,369688	1696,842759	34,941	0,576453	22,380000	52,345000
4,346397	1677,638588	35,294	0,568425	22,380000	52,345000
4,323115	1653,843638	35,648	0,558479	22,380000	52,345000
4,299725	1630,232085	35,998	0,548609	22,370000	52,335000
4,276414	1609,990608	36,351	0,540148	22,370000	52,335000
4,253089	1584,811416	36,703	0,529624	22,370000	52,335000
4,229733	1564,815247	37,055	0,521265	22,370000	52,335000
4,206409	1542,223479	37,407	0,511822	22,370000	52,335000
4,183060	1519,830293	37,759	0,502461	22,370000	52,335000
4,159772	1494,271456	38,112	0,491778	22,370000	52,335000
4,136455	1475,397867	38,464	0,483889	22,370000	52,335000
4,113067	1449,127635	38,816	0,472908	22,370000	52,335000
4,089804	1430,429267	39,168	0,465092	22,370000	52,335000
4,066417	1408,043090	39,519	0,455734	22,370000	52,335000
4,043095	1385,411605	39,872	0,446274	22,370000	52,335000
4,019787	1360,145970	40,224	0,435713	22,380000	52,360000
3,996447	1338,954798	40,584	0,426855	22,380000	52,360000
3,973146	1315,437864	40,949	0,417025	22,380000	52,360000
3,949829	1296,192808	41,302	0,408981	22,380000	52,360000
3,926490	1270,499636	41,654	0,398241	22,380000	52,360000
3,903114	1251,065341	42,011	0,390118	22,380000	52,335000
3,879787	1227,595133	42,363	0,380307	22,380000	52,335000
3,856534	1206,555818	42,716	0,371513	22,380000	52,335000
3,833106	1180,869655	43,070	0,360776	22,380000	52,335000
3,809823	1160,667894	43,423	0,352332	22,380000	52,335000
3,786505	1139,785110	43,774	0,343603	22,380000	52,335000
3,763155	1117,367393	44,125	0,334232	22,370000	52,320000
3,739884	1092,212732	44,497	0,323717	22,370000	52,320000
3,716488	1072,541305	44,852	0,315495	22,370000	52,320000
3,693175	1048,912231	45,203	0,305618	22,370000	52,320000
3,669846	1027,911465	45,554	0,296839	22,370000	52,320000
3,646574	1005,470385	45,907	0,287459	22,370000	52,320000
3,623197	983,788595	46,260	0,278396	22,370000	52,335000
3,599863	957,636345	46,610	0,267464	22,370000	52,335000
3,576532	936,904250	46,963	0,258798	22,370000	52,335000
3,553190	916,544791	47,314	0,250288	22,370000	52,335000
3,529881	893,810509	47,665	0,240785	22,370000	52,335000
3,506544	869,185014	48,015	0,230492	22,370000	52,335000
3,483213	849,536951	48,366	0,222279	22,370000	52,335000
3,459870	827,602843	48,718	0,213110	22,370000	52,335000
3,436563	802,193528	49,068	0,202489	22,370000	52,335000
3,413243	779,942855	49,465	0,193188	22,370000	52,335000
3,389868	758,451471	49,817	0,184205	22,370000	52,335000
3,366576	738,889849	50,168	0,176028	22,380000	52,305000
3,343273	715,752561	50,520	0,166357	22,380000	52,305000
3,319892	693,722666	50,873	0,157148	22,380000	52,305000
3,296585	671,606328	51,225	0,147904	22,380000	52,305000
3,273304	649,314771	51,578	0,138586	22,380000	52,305000
3,249963	627,198434	51,929	0,129341	22,380000	52,305000
3,226656	601,647774	52,279	0,118661	22,370000	52,320000
3,203272	579,483543	52,633	0,109396	22,370000	52,320000
3,179972	556,384803	52,985	0,099741	22,370000	52,320000
3,156590	534,711190	53,336	0,090682	22,370000	52,320000
3,133297	515,016401	53,689	0,082449	22,370000	52,320000
3,110004	490,153774	54,053	0,072057	22,380000	52,345000
3,086573	469,706704	54,405	0,063510	22,380000	52,345000
3,063254	446,141877	54,758	0,053660	22,380000	52,345000
3,039942	422,346927	55,111	0,043713	22,380000	52,345000
3,016651	399,716610	55,470	0,034254	22,380000	52,345000
2,993306	375,518653	55,822	0,024139	22,380000	52,345000
2,969890	353,788969	56,172	0,015056	22,380000	52,305000
2,946711	329,947294	56,524	0,005090	22,380000	52,305000
2,923325	310,750131	56,876	-0,002934	22,380000	52,305000
2,900008	285,753168	57,229	-0,013383	22,380000	52,305000
2,876656	261,856590	57,583	-0,023372	22,380000	52,305000
2,853312	242,919922	57,940	-0,031287	22,380000	52,305000
2,829989	220,091021	58,303	-0,040830	22,380000	52,305000
2,806661	197,064705	58,655	-0,050455	22,380000	52,305000
2,783288	171,759354	59,005	-0,061032	22,380000	52,305000
2,760057	152,506121	59,371	-0,069080	22,380000	52,305000
2,736685	126,449658	59,725	-0,079972	22,380000	52,305000
2,713347	107,212778	60,078	-0,088013	22,380000	52,345000
2,690022	84,304445	60,431	-0,097588	22,380000	52,345000
2,666707	59,173146	60,785	-0,108093	22,380000	52,345000
2,643352	39,168800	61,138	-0,116455	22,380000	52,345000
2,619999	15,612150	61,490	-0,126302	22,380000	52,345000
2,596624	-9,116141	61,841	-0,136638	22,380000	52,345000
2,590035	-11,718750	61,942	-0,137726	22,370000	52,360000