File: Nanoindentation Datenauswertung/data/S_calib/S_calib_1808-4
Quasi static measurement routine
Tip parameters (shape,radius, material...)
18.08.2022

Piezo position[nm]	MEMS displ.[nm]	Time[ms]	Cap [pf]	Temp [°C]	Rh [%]
eoh
2,659928	0,046725	0,198	-0,139036	22,420000	56,235000
2,679977	19,694789	0,399	-0,130823	22,420000	56,235000
2,700025	34,222909	0,601	-0,124750	22,420000	56,235000
2,719945	53,261205	0,802	-0,116792	22,420000	56,235000
2,739965	72,363749	1,003	-0,108808	22,420000	56,235000
2,759945	91,552734	1,205	-0,100787	22,420000	56,235000
2,779973	112,878243	1,406	-0,091873	22,420000	56,235000
2,799934	134,749271	1,606	-0,082730	22,420000	56,235000
2,819943	153,661408	1,806	-0,074825	22,430000	56,260000
2,840005	172,676342	2,007	-0,066877	22,430000	56,260000
2,859949	191,739169	2,221	-0,058909	22,430000	56,260000
2,879946	211,077676	2,424	-0,050825	22,430000	56,260000
2,899922	226,318359	2,634	-0,044455	22,430000	56,260000
2,919969	245,293576	2,835	-0,036523	22,430000	56,260000
2,939933	263,865786	3,035	-0,028760	22,430000	56,260000
2,959916	282,453181	3,237	-0,020990	22,430000	56,260000
2,979953	301,032399	3,437	-0,013224	22,430000	56,260000
2,999908	320,791436	3,637	-0,004965	22,430000	56,260000
3,019952	339,450088	3,838	0,002834	22,430000	56,260000
3,039952	363,188967	4,038	0,012757	22,430000	56,260000
3,059917	382,323051	4,239	0,020755	22,430000	56,260000
3,079927	401,235188	4,439	0,028661	22,430000	56,260000
3,099927	414,908231	4,640	0,034376	22,430000	56,260000
3,119911	433,891625	4,841	0,042311	22,430000	56,260000
3,139913	457,607142	5,043	0,052224	22,430000	56,260000
3,159922	471,953032	5,246	0,058221	22,430000	56,260000
3,179942	491,150194	5,447	0,066245	22,430000	56,260000
3,199909	511,739776	5,647	0,074852	22,430000	56,260000
3,219920	528,989655	5,847	0,082062	22,430000	56,260000
3,239884	548,242888	6,050	0,090110	22,430000	56,260000
3,259953	567,889784	6,252	0,098322	22,430000	56,260000
3,279880	586,240047	6,453	0,105993	22,430000	56,260000
3,299893	604,598488	6,654	0,113667	22,430000	56,260000
3,319896	628,360730	6,854	0,123599	22,430000	56,260000
3,339859	642,683257	7,055	0,129586	22,430000	56,260000
3,359896	661,176034	7,256	0,137316	22,430000	56,260000
3,379852	680,127888	7,457	0,145238	22,430000	56,260000
3,399848	699,166184	7,660	0,153196	22,430000	56,260000
3,419829	718,212657	7,861	0,161157	22,430000	56,250000
3,439860	736,816406	8,061	0,168934	22,430000	56,250000
3,459890	758,252888	8,263	0,177894	22,430000	56,250000
3,479846	774,995795	8,465	0,184893	22,430000	56,250000
3,499868	793,520111	8,667	0,192636	22,430000	56,250000
3,519765	814,497514	8,868	0,201404	22,430000	56,250000
3,539792	834,470320	9,085	0,209753	22,430000	56,250000
3,559840	850,082470	9,285	0,216279	22,430000	56,250000
3,579799	868,614963	9,486	0,224025	22,430000	56,250000
3,599824	889,623907	9,687	0,232807	22,430000	56,250000
3,619797	906,692724	9,888	0,239942	22,430000	56,250000
3,639803	925,691303	10,088	0,247883	22,430000	56,250000
3,659757	944,010027	10,288	0,255541	22,430000	56,250000
3,659856	948,385868	10,489	0,257370	22,430000	56,250000
3,659834	948,124206	10,691	0,257260	22,430000	56,250000
3,659824	947,585695	10,892	0,257035	22,430000	56,250000
3,659833	947,214227	11,092	0,256880	22,430000	56,250000
3,659770	947,325200	11,293	0,256926	22,430000	56,250000
3,659754	946,945555	11,493	0,256768	22,430000	56,250000
3,659813	947,064705	11,693	0,256817	22,430000	56,250000
3,659832	946,692070	11,893	0,256662	22,430000	56,250000
3,659807	946,438584	12,094	0,256556	22,430000	56,250000
3,659842	946,232992	12,294	0,256470	22,430000	56,250000
3,659781	945,727189	12,496	0,256258	22,430000	56,250000
3,659753	945,410624	12,697	0,256126	22,430000	56,250000
3,659735	946,304248	12,897	0,256500	22,430000	56,250000
3,659802	945,702658	13,099	0,256248	22,430000	56,250000
3,659801	945,307827	13,301	0,256083	22,430000	56,250000
3,659777	945,307827	13,501	0,256083	22,430000	56,250000
3,659771	944,920006	13,705	0,255921	22,430000	56,250000
3,659728	944,895475	13,905	0,255911	22,420000	56,250000
3,659787	944,658343	14,106	0,255812	22,420000	56,250000
3,659764	945,006448	14,306	0,255957	22,420000	56,250000
3,659832	944,540361	14,507	0,255762	22,420000	56,250000
3,659757	944,784502	14,708	0,255864	22,420000	56,250000
3,659805	944,286876	14,909	0,255656	22,420000	56,250000
3,659819	944,073107	15,109	0,255567	22,420000	56,250000
3,659794	944,112823	15,310	0,255583	22,420000	56,250000
3,659804	943,844152	15,510	0,255471	22,420000	56,250000
3,659851	943,804435	15,716	0,255455	22,420000	56,250000
3,659817	943,534596	15,916	0,255342	22,430000	56,260000
3,659778	943,345357	16,116	0,255263	22,430000	56,260000
3,659790	943,503056	16,317	0,255329	22,430000	56,260000
3,659828	943,376897	16,519	0,255276	22,430000	56,260000
3,659848	943,139765	16,720	0,255177	22,430000	56,260000
3,659776	943,313818	16,920	0,255250	22,430000	56,260000
3,659797	943,043978	17,120	0,255137	22,430000	56,260000
3,659773	942,894456	17,321	0,255074	22,430000	56,260000
3,659749	942,775307	17,524	0,255024	22,430000	56,260000
3,659758	942,450564	17,725	0,254889	22,430000	56,260000
3,659766	942,647980	17,925	0,254971	22,430000	56,220000
3,659722	942,308052	18,127	0,254829	22,430000	56,220000
3,659824	942,538175	18,328	0,254925	22,430000	56,220000
3,659751	942,236795	18,528	0,254799	22,430000	56,220000
3,659754	942,054566	18,728	0,254723	22,430000	56,220000
3,659745	942,102460	18,928	0,254743	22,430000	56,220000
3,659795	941,683098	19,128	0,254568	22,430000	56,220000
3,659813	942,079097	19,328	0,254733	22,430000	56,220000
3,659785	941,817434	19,528	0,254624	22,430000	56,220000
3,659841	941,699452	19,730	0,254575	22,430000	56,250000
3,659747	941,778886	19,930	0,254608	22,430000	56,250000
3,659787	941,588479	20,131	0,254528	22,430000	56,250000
3,659819	941,200658	20,331	0,254366	22,430000	56,250000
3,639734	925,548791	20,539	0,247824	22,430000	56,250000
3,619788	906,945041	20,739	0,240047	22,430000	56,250000
3,599749	887,867029	20,940	0,232073	22,430000	56,250000
3,579811	868,891812	21,143	0,224141	22,430000	56,250000
3,559838	849,734366	21,345	0,216133	22,430000	56,250000
3,539795	825,655558	21,546	0,206068	22,430000	56,250000
3,519823	806,229441	21,747	0,197948	22,430000	56,250000
3,499855	787,317303	21,947	0,190043	22,430000	56,250000
3,479877	768,080424	22,147	0,182002	22,430000	56,250000
3,459836	748,455723	22,350	0,173799	22,430000	56,250000
3,439811	734,537371	22,550	0,167981	22,430000	56,250000
3,419832	715,363571	22,750	0,159966	22,430000	56,250000
3,399817	696,008710	22,950	0,151876	22,430000	56,250000
3,379868	672,665829	23,150	0,142119	22,430000	56,250000
3,359845	653,279428	23,350	0,134015	22,430000	56,250000
3,339825	634,430370	23,552	0,126136	22,430000	56,250000
3,319844	615,962124	23,754	0,118417	22,430000	56,235000
3,299862	597,951789	23,955	0,110888	22,430000	56,235000
3,279860	578,706732	24,156	0,102844	22,430000	56,235000
3,259863	560,238487	24,357	0,095124	22,430000	56,235000
3,239846	543,549314	24,557	0,088148	22,430000	56,235000
3,219926	523,932790	24,758	0,079948	22,430000	56,235000
3,199843	504,325611	24,958	0,071752	22,430000	56,235000
3,179833	486,315275	25,160	0,064224	22,430000	56,235000
3,159856	467,419492	25,364	0,056326	22,430000	56,235000
3,139925	443,680613	25,565	0,046403	22,430000	56,235000
3,119899	424,791838	25,767	0,038507	22,430000	56,235000
3,099873	405,611029	25,969	0,030490	22,430000	56,235000
3,079884	388,598282	26,174	0,023378	22,430000	56,235000
3,059905	370,248019	26,375	0,015708	22,430000	56,235000
3,039882	351,256448	26,575	0,007770	22,430000	56,235000
3,019938	332,320948	26,775	-0,000146	22,430000	56,235000
2,999891	313,574686	26,975	-0,007981	22,430000	56,235000
2,979876	294,528213	27,175	-0,015943	22,430000	56,235000
2,959944	275,062379	27,375	-0,024080	22,430000	56,235000
2,939906	256,768186	27,575	-0,031727	22,430000	56,235000
2,919902	236,779026	27,775	-0,040082	22,430000	56,235000
2,899893	219,283839	27,975	-0,047395	22,430000	56,235000
2,879963	200,648550	28,175	-0,055185	22,430000	56,235000
2,859947	180,589302	28,375	-0,063569	22,430000	56,235000
2,839931	162,666576	28,576	-0,071061	22,430000	56,235000
2,819894	144,371215	28,776	-0,078708	22,430000	56,235000
2,799881	125,324742	28,976	-0,086670	22,430000	56,235000
2,779943	107,219787	29,177	-0,094238	22,430000	56,235000
2,759931	83,813827	29,379	-0,104021	22,430000	56,235000
2,739943	69,641989	29,579	-0,109945	22,430000	56,235000
2,719937	51,164399	29,782	-0,117669	22,430000	56,250000
2,699950	31,445079	29,985	-0,125912	22,430000	56,250000
2,679908	13,459274	30,185	-0,133430	22,430000	56,250000
2,659932	-5,436509	30,392	-0,141328	22,430000	56,250000