File: Nanoindentation Datenauswertung/data/S_calib/S_calib_0509-2
Quasi static measurement routine
Tip parameters (shape,radius, material...)
05.09.2022

Piezo position[nm]	MEMS displ.[nm]	Time[ms]	Cap [pf]	Temp [°C]	Rh [%]
eoh
1,936037	0,119436	0,223	-0,069232	94,110000	0,000000
1,948038	10,493949	0,823	-0,064906	94,180000	0,000000
1,959984	24,438652	1,423	-0,059091	94,180000	0,000000
1,971999	36,082462	2,025	-0,054235	94,180000	0,000000
1,984030	48,663023	2,625	-0,048989	94,180000	0,000000
1,996014	60,306833	3,227	-0,044134	94,180000	0,000000
2,008010	72,006848	3,829	-0,039255	94,180000	0,000000
2,020024	82,904770	4,430	-0,034710	94,180000	0,000000
2,032028	95,294468	5,031	-0,029544	94,160000	0,000000
2,043961	107,557704	5,631	-0,024430	94,160000	0,000000
2,055998	119,852555	6,232	-0,019303	94,160000	0,000000
2,067993	131,734066	6,836	-0,014349	94,160000	0,000000
2,080024	143,656559	7,439	-0,009377	94,160000	0,000000
2,091981	157,759339	8,040	-0,003496	94,160000	0,000000
2,104011	170,157234	8,641	0,001674	94,130000	0,000000
2,116017	180,888883	9,241	0,006149	94,130000	0,000000
2,128008	193,841802	9,841	0,011550	94,130000	0,000000
2,139990	205,612073	10,442	0,016458	94,130000	0,000000
2,151958	218,430334	11,043	0,021804	94,130000	0,000000
2,163976	230,359853	11,647	0,026778	94,130000	0,000000
2,175950	240,798767	12,249	0,031131	94,130000	0,000000
2,187973	254,632232	12,853	0,036900	94,130000	0,000000
2,200013	264,840471	13,454	0,041157	94,180000	0,000000
2,212019	277,801587	14,054	0,046562	94,180000	0,000000
2,223975	290,968787	14,656	0,052052	94,180000	0,000000
2,236000	301,240258	15,257	0,056335	94,160000	0,000000
2,248020	314,161561	15,857	0,061724	94,160000	0,000000
2,260048	326,265550	16,459	0,066771	94,160000	0,000000
2,271968	338,504197	17,059	0,071875	94,090000	0,000000
2,284025	349,696024	17,660	0,076542	94,090000	0,000000
2,296003	361,848022	18,262	0,081609	94,090000	0,000000
2,307949	373,754122	18,862	0,086574	94,090000	0,000000
2,319963	385,406128	19,464	0,091433	94,090000	0,000000
2,331952	399,540524	20,065	0,097327	94,090000	0,000000
2,344041	409,662114	20,668	0,101547	94,090000	0,000000
2,356012	421,877342	21,268	0,106641	94,130000	0,000000
2,367973	435,980122	21,868	0,112522	94,130000	0,000000
2,379969	445,910849	22,470	0,116663	94,130000	0,000000
2,392021	459,855553	23,072	0,122478	94,210000	0,000000
2,403986	470,301493	23,672	0,126834	94,210000	0,000000
2,416002	481,850457	24,272	0,131650	94,210000	0,000000
2,428043	495,438025	24,873	0,137316	94,210000	0,000000
2,439991	506,780903	25,475	0,142046	94,210000	0,000000
2,452004	518,552346	26,077	0,146955	94,210000	0,000000
2,464028	530,124728	26,680	0,151780	94,180000	0,000000
2,476025	544,370363	27,284	0,157721	94,180000	0,000000
2,487996	556,363113	27,885	0,162722	94,180000	0,000000
2,500066	566,310233	28,485	0,166870	94,180000	0,000000
2,511958	579,168306	29,087	0,172231	94,160000	0,000000
2,524002	592,049798	29,689	0,177603	94,160000	0,000000
2,536019	603,653796	30,290	0,182442	94,160000	0,000000
2,547995	614,933444	30,892	0,187146	94,110000	0,000000
2,559974	626,909800	31,494	0,192140	94,110000	0,000000
2,572010	638,760866	32,095	0,197082	94,110000	0,000000
2,583968	650,919889	32,696	0,202152	94,210000	0,000000
2,595987	662,913810	33,297	0,207153	94,210000	0,000000
2,607971	674,898363	33,900	0,212151	94,210000	0,000000
2,619993	688,517545	34,505	0,217830	94,210000	0,000000
2,631968	698,940067	35,106	0,222176	94,190000	0,000000
2,643992	711,750131	35,707	0,227518	94,190000	0,000000
2,655991	723,363497	36,309	0,232361	94,190000	0,000000
2,667947	735,316434	36,913	0,237345	94,080000	0,000000
2,679947	747,182723	37,513	0,242293	94,080000	0,000000
2,691954	761,166067	38,115	0,248125	94,080000	0,000000
2,704024	771,398897	38,718	0,252392	94,170000	0,000000
2,715975	785,208942	39,318	0,258150	94,170000	0,000000
2,727972	795,249738	39,920	0,262337	94,170000	0,000000
2,739971	807,275274	40,522	0,267352	94,170000	0,000000
2,751968	819,070135	41,124	0,272271	94,110000	0,000000
2,763952	831,888396	41,725	0,277616	94,110000	0,000000
2,775972	843,952572	42,325	0,282646	94,110000	0,000000
2,788044	856,000356	42,925	0,287670	94,160000	0,000000
2,799914	869,612513	43,526	0,293347	94,160000	0,000000
2,811911	879,432001	44,128	0,297441	94,160000	0,000000
2,823996	891,472759	44,729	0,302462	94,140000	0,000000
2,835965	905,750009	45,331	0,308416	94,140000	0,000000
2,847941	915,728745	45,933	0,312577	94,140000	0,000000
2,859968	928,427570	46,534	0,317873	94,140000	0,000000
2,871997	941,396882	47,138	0,323281	94,140000	0,000000
2,883976	952,326420	47,741	0,327838	94,140000	0,000000
2,895935	964,018239	48,343	0,332714	94,140000	0,000000
2,907959	975,939561	48,947	0,337685	94,140000	0,000000
2,919941	989,947495	49,547	0,343526	94,140000	0,000000
2,931957	999,942624	50,148	0,347694	94,140000	0,000000
2,935925	1005,994033	50,749	0,350218	94,120000	0,000000
2,935948	1005,764529	51,351	0,350122	94,120000	0,000000
2,924019	994,675744	51,951	0,345498	94,120000	0,000000
2,911946	981,746244	52,554	0,340106	94,120000	0,000000
2,899977	971,180868	53,157	0,335701	94,120000	0,000000
2,887909	958,696324	53,757	0,330495	94,120000	0,000000
2,875938	947,075933	54,358	0,325649	94,120000	0,000000
2,863986	934,551577	54,961	0,320426	94,130000	0,000000
2,851985	922,494426	55,562	0,315398	94,130000	0,000000
2,839948	910,619942	56,164	0,310447	94,130000	0,000000
2,827992	898,309868	56,767	0,305313	94,130000	0,000000
2,815912	884,413173	57,368	0,299519	94,160000	0,000000
2,803978	872,118321	57,968	0,294392	94,160000	0,000000
2,791959	860,791835	58,571	0,289668	94,160000	0,000000
2,779932	847,823694	59,173	0,284261	94,080000	0,000000
2,767935	837,544027	59,776	0,279974	94,080000	0,000000
2,755992	823,257410	60,378	0,274017	94,080000	0,000000
2,743919	813,303264	60,982	0,269866	94,080000	0,000000
2,731998	799,391346	61,584	0,264064	94,080000	0,000000
2,720021	787,397426	62,185	0,259063	94,080000	0,000000
2,708019	776,966708	62,789	0,254713	94,080000	0,000000
2,695960	764,521976	63,390	0,249524	94,080000	0,000000
2,683953	750,283367	63,990	0,243586	94,080000	0,000000
2,672062	740,138358	64,593	0,239356	94,080000	0,000000
2,659950	728,407899	65,196	0,234464	94,110000	0,000000
2,647991	714,090837	65,798	0,228494	94,110000	0,000000
2,636035	702,065301	66,400	0,223479	94,110000	0,000000
2,624000	691,857061	67,000	0,219223	94,130000	0,000000
2,611935	679,808107	67,603	0,214198	94,130000	0,000000
2,600011	667,283751	68,205	0,208976	94,130000	0,000000
2,588014	654,196174	68,806	0,203518	94,130000	0,000000
2,575992	643,472722	69,408	0,199046	94,110000	0,000000
2,563974	629,265728	70,008	0,193122	94,110000	0,000000
2,551970	619,192146	70,610	0,188921	94,160000	0,000000
2,539992	605,105759	71,212	0,183047	94,160000	0,000000
2,528021	593,794496	71,816	0,178331	94,160000	0,000000
2,515983	581,205739	72,417	0,173081	94,160000	0,000000
2,503953	569,204792	73,017	0,168077	94,160000	0,000000
2,491957	557,346701	73,619	0,163132	94,160000	0,000000
2,479953	546,741513	74,220	0,158709	94,160000	0,000000
2,467910	534,304978	74,822	0,153523	94,160000	0,000000
2,455986	522,898868	75,425	0,148767	94,160000	0,000000
2,444031	508,502183	76,027	0,142764	94,160000	0,000000
2,431998	496,286955	76,628	0,137670	94,140000	0,000000
2,420009	486,324612	77,231	0,133516	94,140000	0,000000
2,407996	474,458324	77,831	0,128567	94,140000	0,000000
2,396006	460,181074	78,433	0,122614	94,140000	0,000000
2,384003	448,750375	79,035	0,117847	94,140000	0,000000
2,371968	436,717813	79,635	0,112830	94,140000	0,000000
2,359991	425,168849	80,235	0,108014	94,140000	0,000000
2,348022	411,850598	80,837	0,102460	94,140000	0,000000
2,336035	401,627136	81,438	0,098197	94,140000	0,000000
2,323984	387,959945	82,040	0,092498	94,140000	0,000000
2,311979	377,490586	82,641	0,088132	94,140000	0,000000
2,300001	365,599708	83,242	0,083173	94,130000	0,000000
2,287998	353,940676	83,842	0,078312	94,130000	0,000000
2,275966	340,662236	84,444	0,072774	94,130000	0,000000
2,264022	329,470408	85,045	0,068107	94,110000	0,000000
2,251986	317,405060	85,647	0,063076	94,110000	0,000000
2,240041	305,356106	86,248	0,058052	94,110000	0,000000
2,227970	293,411365	86,852	0,053071	94,170000	0,000000
2,216016	280,330813	87,453	0,047616	94,170000	0,000000
2,204041	267,211621	88,053	0,042146	94,170000	0,000000
2,192040	257,146236	88,656	0,037948	94,170000	0,000000
2,179996	243,812762	89,257	0,032388	94,170000	0,000000
2,168030	233,127951	89,857	0,027933	94,170000	0,000000
2,156008	220,294468	90,458	0,022581	94,170000	0,000000
2,143980	209,197486	91,059	0,017954	94,080000	0,000000
2,131990	197,093497	91,661	0,012906	94,080000	0,000000
2,119982	183,108982	92,264	0,007075	94,080000	0,000000
2,107959	171,084617	92,866	0,002061	94,110000	0,000000
2,096003	160,130489	93,467	-0,002507	94,110000	0,000000
2,083999	146,883665	94,068	-0,008031	94,110000	0,000000
2,072026	136,493930	94,671	-0,012364	94,110000	0,000000
2,060001	122,683884	95,271	-0,018123	94,120000	0,000000
2,048042	113,038866	95,872	-0,022145	94,120000	0,000000
2,035979	100,934877	96,474	-0,027192	94,120000	0,000000
2,023979	88,576795	97,077	-0,032345	94,140000	0,000000
2,011997	74,640288	97,679	-0,038157	94,140000	0,000000
2,000028	64,859441	98,279	-0,042235	94,140000	0,000000
1,987998	50,947523	98,880	-0,048037	94,140000	0,000000
1,976008	41,008599	99,481	-0,052181	94,140000	0,000000
1,964036	28,198535	100,082	-0,057523	94,140000	0,000000
1,952022	16,403674	100,685	-0,062441	94,130000	0,000000
1,939966	4,545582	101,286	-0,067386	94,130000	0,000000
1,936004	0,634649	101,486	-0,069017	94,130000	0,000000