File: Nanoindentation Datenauswertung/data/S_calib/S_calib_3008-1
Quasi static measurement routine
Tip parameters (shape,radius, material...)
30.08.2022

Piezo position[nm]	MEMS displ.[nm]	Time[ms]	Cap [pf]	Temp [°C]	Rh [%]
eoh
1,372124	-0,058888	0,194	-0,123553	22,630000	51,505000
1,384133	12,116245	0,796	-0,118708	22,630000	51,505000
1,396130	22,703851	1,399	-0,114494	22,630000	51,505000
1,408155	36,292301	2,000	-0,109085	22,640000	51,520000
1,420142	46,115588	2,600	-0,105176	22,640000	51,520000
1,432118	60,209495	3,201	-0,099566	22,640000	51,520000
1,444118	70,871938	3,802	-0,095323	22,630000	51,520000
1,456098	81,718406	4,402	-0,091006	22,630000	51,520000
1,468095	94,948620	5,005	-0,085740	22,630000	51,520000
1,480081	105,952124	5,608	-0,081361	22,630000	51,520000
1,492128	117,836497	6,208	-0,076631	22,630000	51,520000
1,504078	132,238340	6,808	-0,070899	22,630000	51,520000
1,516075	141,703390	7,409	-0,067132	22,630000	51,520000
1,528087	153,688364	8,010	-0,062362	22,630000	51,545000
1,540117	165,663523	8,611	-0,057596	22,630000	51,545000
1,552116	177,805532	9,213	-0,052763	22,630000	51,545000
1,564106	191,533841	9,813	-0,047299	22,640000	51,505000
1,576099	201,647888	10,417	-0,043274	22,640000	51,505000
1,588124	214,073296	11,019	-0,038329	22,640000	51,505000
1,600108	225,790819	11,621	-0,033665	22,640000	51,505000
1,612106	237,724266	12,223	-0,028916	22,630000	51,545000
1,624115	249,683476	12,826	-0,024156	22,630000	51,545000
1,636042	261,742060	13,428	-0,019356	22,630000	51,545000
1,648086	273,659558	14,030	-0,014613	22,630000	51,520000
1,660122	287,056621	14,632	-0,009281	22,630000	51,520000
1,672144	299,621889	15,234	-0,004280	22,630000	51,520000
1,684066	310,035284	15,838	-0,000136	22,620000	51,530000
1,696081	322,069331	16,439	0,004654	22,620000	51,530000
1,708088	335,308132	17,040	0,009923	22,620000	51,530000
1,720067	345,770601	17,641	0,014087	22,620000	51,530000
1,732128	357,780111	18,242	0,018867	22,620000	51,545000
1,744157	371,542772	18,843	0,024344	22,620000	51,545000
1,756103	383,551056	19,445	0,029124	22,620000	51,545000
1,768062	395,510266	20,048	0,033883	22,640000	51,530000
1,780113	407,311214	20,651	0,038580	22,640000	51,530000
1,792091	418,248469	21,256	0,042933	22,640000	51,530000
1,804063	429,567270	21,858	0,047438	22,640000	51,545000
1,816077	441,276205	22,459	0,052098	22,640000	51,545000
1,828097	455,097754	23,059	0,057599	22,640000	51,545000
1,840028	465,443673	23,660	0,061717	22,640000	51,545000
1,852073	479,322884	24,262	0,067241	22,640000	51,505000
1,864089	489,187883	24,863	0,071167	22,640000	51,505000
1,876079	503,083042	25,464	0,076697	22,640000	51,505000
1,888081	514,791977	26,066	0,081357	22,630000	51,520000
1,900123	525,222548	26,668	0,085509	22,630000	51,520000
1,912069	537,754691	27,270	0,090497	22,630000	51,520000
1,924083	549,672189	27,871	0,095240	22,630000	51,520000
1,936048	560,799603	28,472	0,099668	22,630000	51,520000
1,948094	574,943811	29,075	0,105298	22,630000	51,520000
1,960107	587,120171	29,678	0,110144	22,630000	51,520000
1,972098	596,983943	30,279	0,114070	22,640000	51,530000
1,984065	611,030004	30,880	0,119660	22,640000	51,530000
1,996045	620,951437	31,480	0,123609	22,640000	51,530000
2,008072	633,185459	32,082	0,128478	22,620000	51,530000
2,020061	645,078419	32,687	0,133211	22,620000	51,530000
2,032045	657,734473	33,289	0,138249	22,620000	51,530000
2,044040	669,303549	33,890	0,142853	22,620000	51,530000
2,056026	681,362133	34,491	0,147652	22,620000	51,530000
2,068095	692,788896	35,095	0,152200	22,620000	51,530000
2,080132	704,939492	35,695	0,157036	22,620000	51,530000
2,092062	719,250550	36,297	0,162732	22,630000	51,520000
2,104044	729,006360	36,900	0,166615	22,630000	51,520000
2,116140	742,427960	37,500	0,171957	22,630000	51,520000
2,128097	754,262033	38,102	0,176667	22,630000	51,530000
2,140042	765,016489	38,703	0,180947	22,630000	51,530000
2,152059	776,958523	39,307	0,185700	22,630000	51,530000
2,164121	788,876021	39,907	0,190443	22,630000	51,520000
2,176099	801,110042	40,508	0,195312	22,630000	51,520000
2,188078	813,135502	41,108	0,200098	22,630000	51,520000
2,200038	825,086124	41,708	0,204854	22,630000	51,520000
2,212084	836,554599	42,308	0,209419	22,630000	51,530000
2,224088	849,103918	42,910	0,214414	22,630000	51,530000
2,236074	862,649429	43,513	0,219805	22,630000	51,530000
2,248075	873,254211	44,114	0,224025	22,640000	51,505000
2,260073	885,969152	44,716	0,229086	22,640000	51,505000
2,272086	899,009206	45,317	0,234276	22,640000	51,505000
2,284083	909,097489	45,920	0,238291	22,640000	51,505000
2,296090	923,134962	46,521	0,243878	22,640000	51,505000
2,308089	932,584063	47,122	0,247639	22,640000	51,505000
2,320046	945,057318	47,723	0,252603	22,640000	51,505000
2,332054	956,925742	48,325	0,257327	22,630000	51,505000
2,344061	968,684978	48,927	0,262007	22,630000	51,505000
2,356114	982,945735	49,529	0,267683	22,630000	51,505000
2,368069	993,076957	50,129	0,271715	22,630000	51,505000
2,372061	998,985406	50,731	0,274066	22,630000	51,505000
2,372088	998,901981	51,333	0,274033	22,630000	51,505000
2,360033	987,417557	51,933	0,269462	22,640000	51,520000
2,348054	973,754269	52,535	0,264024	22,640000	51,520000
2,336058	963,274625	53,138	0,259854	22,640000	51,520000
2,324040	951,016067	53,740	0,254975	22,630000	51,520000
2,312065	938,758735	54,342	0,250096	22,630000	51,520000
2,300070	924,439090	54,943	0,244397	22,630000	51,520000
2,288057	912,230832	55,547	0,239538	22,630000	51,520000
2,276047	900,264261	56,149	0,234775	22,640000	51,505000
2,264053	889,036246	56,749	0,230307	22,640000	51,505000
2,252058	875,555757	57,350	0,224941	22,640000	51,505000
2,240107	863,987908	57,952	0,220337	22,640000	51,505000
2,228090	851,546551	58,552	0,215386	22,640000	51,505000
2,216056	839,214382	59,155	0,210478	22,640000	51,505000
2,204080	825,892156	59,757	0,205175	22,630000	51,505000
2,192077	815,952320	60,358	0,201219	22,630000	51,505000
2,180064	801,167704	60,959	0,195335	22,630000	51,505000
2,168076	789,258794	61,561	0,190595	22,630000	51,505000
2,156090	777,365833	62,163	0,185862	22,630000	51,490000
2,144048	764,825102	62,764	0,180871	22,630000	51,490000
2,132103	754,237496	63,366	0,176657	22,630000	51,490000
2,120104	740,509187	63,966	0,171193	22,640000	51,490000
2,108067	728,840737	64,567	0,166549	22,640000	51,490000
2,096061	717,039789	65,170	0,161852	22,640000	51,490000
2,084051	705,429000	65,771	0,157231	22,630000	51,505000
2,072090	693,262455	66,374	0,152389	22,630000	51,505000
2,060037	679,118247	66,977	0,146759	22,630000	51,505000
2,048095	668,829990	67,579	0,142665	22,630000	51,505000
2,036040	654,734856	68,179	0,137055	22,640000	51,520000
2,024102	642,368336	68,780	0,132133	22,640000	51,520000
2,012143	630,591924	69,381	0,127446	22,640000	51,520000
2,000088	618,400842	69,983	0,122594	22,640000	51,520000
1,988059	607,131115	70,587	0,118108	22,640000	51,520000
1,976116	595,554678	71,189	0,113501	22,640000	51,520000
1,964093	582,075416	71,791	0,108136	22,630000	51,490000
1,952094	571,296424	72,392	0,103846	22,630000	51,490000
1,940140	559,262376	72,994	0,099057	22,630000	51,490000
1,928125	547,095831	73,596	0,094214	22,630000	51,490000
1,916124	533,582218	74,197	0,088836	22,630000	51,490000
1,904104	521,465972	74,799	0,084014	22,630000	51,490000
1,892115	511,052577	75,399	0,079869	22,630000	51,490000
1,880103	498,337635	75,999	0,074809	22,630000	51,520000
1,868080	485,314757	76,600	0,069625	22,630000	51,520000
1,856089	474,328429	77,201	0,065253	22,630000	51,520000
1,844046	462,118944	77,803	0,060394	22,640000	51,520000
1,832113	450,251747	78,403	0,055670	22,640000	51,520000
1,820089	438,276588	79,004	0,050904	22,640000	51,520000
1,808120	426,009442	79,607	0,046022	22,640000	51,520000
1,796108	413,660097	80,211	0,041107	22,620000	51,530000
1,784125	401,518088	80,812	0,036274	22,620000	51,530000
1,772087	388,977357	81,415	0,031283	22,620000	51,530000
1,760171	376,861112	82,017	0,026461	22,620000	51,530000
1,748127	365,051576	82,620	0,021761	22,620000	51,530000
1,736130	353,666526	83,222	0,017229	22,620000	51,530000
1,724142	341,308594	83,823	0,012311	22,630000	51,480000
1,712115	327,213460	84,425	0,006701	22,630000	51,480000
1,700083	315,064090	85,027	0,001866	22,630000	51,480000
1,688118	305,107078	85,628	-0,002097	22,630000	51,480000
1,676107	291,119906	86,230	-0,007664	22,640000	51,530000
1,664167	279,494396	86,830	-0,012291	22,640000	51,530000
1,652113	268,905563	87,431	-0,016505	22,640000	51,530000
1,640125	257,329126	88,034	-0,021113	22,640000	51,530000
1,628092	245,038670	88,637	-0,026004	22,640000	51,530000
1,616133	233,162885	89,239	-0,030731	22,640000	51,530000
1,604062	221,203675	89,841	-0,035491	22,630000	51,490000
1,592119	207,174790	90,441	-0,041074	22,630000	51,490000
1,580106	197,384628	91,043	-0,044971	22,630000	51,490000
1,568138	183,590069	91,645	-0,050461	22,630000	51,490000
1,556134	173,384010	92,247	-0,054523	22,630000	51,490000
1,544089	161,765861	92,847	-0,059147	22,630000	51,490000
1,532129	149,117168	93,449	-0,064181	22,630000	51,490000
1,520092	136,900322	94,049	-0,069043	22,630000	51,505000
1,508146	125,506684	94,650	-0,073578	22,630000	51,505000
1,496175	113,796522	95,250	-0,078239	22,630000	51,505000
1,484139	101,945273	95,853	-0,082956	22,630000	51,465000
1,472140	90,344300	96,456	-0,087573	22,630000	51,465000
1,460094	76,240578	97,058	-0,093186	22,630000	51,465000
1,448143	64,265419	97,658	-0,097952	22,630000	51,465000
1,436162	54,375883	98,259	-0,101888	22,630000	51,520000
1,424098	40,430424	98,861	-0,107438	22,630000	51,520000
1,412143	28,206217	99,462	-0,112304	22,630000	51,520000
1,400179	18,524017	100,063	-0,116157	22,640000	51,505000
1,388144	4,188423	100,664	-0,121863	22,640000	51,505000
1,376135	-6,391822	101,267	-0,126074	22,640000	51,505000
1,372111	-12,284322	101,467	-0,128419	22,640000	51,505000