File: Nanoindentation Datenauswertung/data/S_calib/S_calib_1808-1
Quasi static measurement routine
Tip parameters (shape,radius, material...)
18.08.2022

Piezo position[nm]	MEMS displ.[nm]	Time[ms]	Cap [pf]	Temp [°C]	Rh [%]
eoh
2,659894	0,008177	0,179	-0,134647	22,440000	56,235000
2,674896	14,030493	0,481	-0,128786	22,440000	56,235000
2,690019	28,518896	0,802	-0,122729	22,430000	56,250000
2,704913	41,440827	1,105	-0,117328	22,430000	56,250000
2,719892	55,652381	1,407	-0,111388	22,430000	56,250000
2,734955	71,723609	1,728	-0,104670	22,430000	56,250000
2,749938	84,035773	2,041	-0,099523	22,430000	56,250000
2,764922	98,406194	2,343	-0,093517	22,430000	56,250000
2,779911	114,525316	2,644	-0,086779	22,430000	56,250000
2,794919	127,036063	2,945	-0,081549	22,430000	56,250000
2,809844	140,424080	3,247	-0,075953	22,430000	56,250000
2,824849	154,524662	3,550	-0,070059	22,430000	56,250000
2,839892	169,092498	3,850	-0,063970	22,430000	56,250000
2,854868	185,504822	4,151	-0,057109	22,430000	56,250000
2,869924	197,041343	4,471	-0,052287	22,430000	56,250000
2,884900	211,197995	4,772	-0,046370	22,420000	56,250000
2,899944	225,536876	5,074	-0,040376	22,420000	56,250000
2,914913	242,097553	5,375	-0,033454	22,420000	56,250000
2,929903	255,407306	5,678	-0,027890	22,420000	56,250000
2,944869	271,035810	5,991	-0,021357	22,420000	56,250000
2,959886	282,232403	6,294	-0,016677	22,420000	56,250000
2,974932	298,280269	6,594	-0,009969	22,430000	56,250000
2,989883	311,653101	6,897	-0,004379	22,430000	56,250000
3,004894	325,524727	7,201	0,001419	22,430000	56,250000
3,019839	338,960638	7,501	0,007035	22,430000	56,250000
3,034901	355,680183	7,803	0,014024	22,430000	56,250000
3,049894	368,855600	8,118	0,019531	22,430000	56,250000
3,064899	383,724815	8,423	0,025747	22,430000	56,250000
3,079918	397,699237	8,727	0,031588	22,430000	56,250000
3,094897	411,047539	9,027	0,037167	22,430000	56,250000
3,109870	423,756869	9,330	0,042480	22,430000	56,250000
3,124966	438,094582	9,635	0,048473	22,430000	56,250000
3,139876	451,886775	9,938	0,054238	22,430000	56,250000
3,154897	467,190537	10,238	0,060635	22,430000	56,250000
3,169813	480,120645	10,539	0,066040	22,430000	56,250000
3,184872	494,822817	10,841	0,072186	22,430000	56,235000
3,199860	508,765700	11,143	0,078014	22,430000	56,235000
3,214897	525,002804	11,452	0,084801	22,430000	56,235000
3,229851	536,911960	11,755	0,089779	22,430000	56,235000
3,244833	550,585003	12,060	0,095494	22,430000	56,235000
3,259814	564,923884	12,360	0,101488	22,430000	56,235000
3,274848	578,550202	12,663	0,107184	22,430000	56,235000
3,289835	592,579527	12,966	0,113048	22,430000	56,235000
3,304849	609,063107	13,268	0,119938	22,430000	56,235000
3,319883	621,065715	13,591	0,124955	22,430000	56,235000
3,334824	634,945518	13,893	0,130757	22,430000	56,235000
3,349822	649,972432	14,196	0,137038	22,430000	56,235000
3,364890	663,076592	14,497	0,142516	22,430000	56,235000
3,379804	677,130448	14,799	0,148390	22,420000	56,235000
3,394810	691,159773	15,101	0,154254	22,420000	56,235000
3,409802	707,872309	15,402	0,161240	22,420000	56,235000
3,424796	719,511625	15,706	0,166105	22,420000	56,235000
3,439822	733,288633	16,008	0,171864	22,420000	56,235000
3,454797	747,326134	16,310	0,177732	22,420000	56,235000
3,469718	761,909156	16,612	0,183828	22,420000	56,235000
3,484777	775,346236	16,917	0,189444	22,420000	56,235000
3,499813	787,239038	17,223	0,194416	22,420000	56,235000
3,514741	805,960769	17,526	0,202241	22,420000	56,235000
3,529754	820,180501	17,829	0,208185	22,420000	56,235000
3,544818	832,089657	18,146	0,213163	22,420000	56,235000
3,559782	846,024363	18,447	0,218988	22,420000	56,235000
3,574818	861,581611	18,748	0,225491	22,430000	56,250000
3,589783	875,325910	19,050	0,231236	22,430000	56,250000
3,604801	889,229076	19,351	0,237047	22,430000	56,250000
3,619715	902,427856	19,653	0,242564	22,430000	56,250000
3,634753	916,781923	19,953	0,248564	22,430000	56,250000
3,649838	930,416417	20,254	0,254264	22,430000	56,250000
3,659724	941,604833	20,554	0,258940	22,430000	56,250000
3,659742	941,233366	20,855	0,258785	22,430000	56,250000
3,659769	940,988057	21,157	0,258683	22,430000	56,250000
3,659746	941,153932	21,460	0,258752	22,430000	56,250000
3,659785	940,474077	21,761	0,258468	22,430000	56,250000
3,659802	940,117795	22,073	0,258319	22,430000	56,250000
3,659773	940,141158	22,382	0,258329	22,430000	56,250000
3,659769	939,880663	22,684	0,258220	22,430000	56,235000
3,659788	939,706611	22,984	0,258147	22,430000	56,235000
3,659789	939,453125	23,295	0,258041	22,430000	56,235000
3,659739	939,231179	23,598	0,257948	22,430000	56,235000
3,659733	939,088666	23,899	0,257889	22,430000	56,235000
3,659774	939,065304	24,203	0,257879	22,430000	56,235000
3,659751	938,606226	24,504	0,257687	22,430000	56,235000
3,659782	938,526792	24,805	0,257654	22,430000	56,260000
3,659721	938,400634	25,107	0,257601	22,430000	56,260000
3,659784	938,107431	25,408	0,257479	22,430000	56,260000
3,659793	938,203218	25,709	0,257519	22,430000	56,260000
3,659791	938,084068	26,010	0,257469	22,430000	56,260000
3,659815	937,775680	26,312	0,257340	22,430000	56,260000
3,659818	937,522195	26,614	0,257234	22,430000	56,235000
3,659757	937,387859	26,916	0,257178	22,430000	56,235000
3,659736	937,396036	27,217	0,257181	22,430000	56,235000
3,659751	937,134373	27,522	0,257072	22,430000	56,235000
3,659791	937,205629	27,823	0,257102	22,430000	56,235000
3,659786	936,746552	28,125	0,256910	22,430000	56,235000
3,659790	936,595862	28,446	0,256847	22,430000	56,235000
3,659705	936,786268	28,748	0,256926	22,430000	56,235000
3,659742	936,509420	29,051	0,256811	22,430000	56,235000
3,659816	936,486057	29,353	0,256801	22,430000	56,235000
3,659757	936,280465	29,656	0,256715	22,430000	56,235000
3,659755	936,192855	29,957	0,256678	22,430000	56,235000
3,659834	935,821387	30,260	0,256523	22,430000	56,235000
3,659778	936,146129	30,561	0,256659	22,430000	56,250000
3,644732	921,918221	30,861	0,250711	22,430000	56,250000
3,629747	907,856188	31,163	0,244833	22,430000	56,250000
3,614813	894,816275	31,463	0,239383	22,430000	56,250000
3,599742	879,424903	31,764	0,232949	22,430000	56,250000
3,584856	865,609347	32,066	0,227174	22,430000	56,250000
3,569799	851,159493	32,369	0,221134	22,430000	56,250000
3,554715	837,114982	32,670	0,215264	22,430000	56,250000
3,539731	820,505243	32,973	0,208321	22,430000	56,250000
3,524743	808,121823	33,276	0,203145	22,430000	56,250000
3,509757	792,010878	33,577	0,196410	22,430000	56,250000
3,494848	777,086760	33,878	0,190172	22,430000	56,250000
3,479753	763,120514	34,180	0,184334	22,430000	56,250000
3,464753	750,871430	34,499	0,179214	22,430000	56,250000
3,449813	736,651699	34,805	0,173270	22,430000	56,235000
3,434823	722,012607	35,116	0,167151	22,430000	56,235000
3,419786	706,660951	35,417	0,160734	22,430000	56,235000
3,404834	692,354777	35,720	0,154754	22,430000	56,235000
3,389814	678,474974	36,023	0,148952	22,430000	56,235000
3,374851	664,508728	36,323	0,143114	22,430000	56,235000
3,359808	650,479403	36,623	0,137250	22,430000	56,250000
3,344830	636,196593	36,928	0,131280	22,430000	56,250000
3,329850	621,983870	37,229	0,125339	22,430000	56,250000
3,314809	606,111225	37,540	0,118704	22,430000	56,250000
3,299795	593,815416	37,843	0,113564	22,430000	56,250000
3,284850	576,778138	38,151	0,106443	22,430000	56,250000
3,269815	564,978787	38,467	0,101511	22,430000	56,250000
3,254825	548,203172	38,769	0,094499	22,430000	56,250000
3,239841	535,622337	39,074	0,089240	22,430000	56,250000
3,224876	521,402605	39,378	0,083296	22,430000	56,250000
3,209841	507,879084	39,681	0,077643	22,430000	56,250000
3,194817	493,841582	39,992	0,071775	22,430000	56,250000
3,179859	478,910455	40,301	0,065534	22,430000	56,250000
3,164877	465,141625	40,604	0,059779	22,420000	56,220000
3,149860	451,104123	40,908	0,053911	22,420000	56,220000
3,134905	436,472039	41,219	0,047795	22,420000	56,220000
3,119860	421,841124	41,519	0,041679	22,420000	56,220000
3,104860	405,690462	41,820	0,034928	22,420000	56,220000
3,089851	391,455545	42,128	0,028978	22,420000	56,220000
3,074800	379,072125	42,432	0,023802	22,420000	56,220000
3,059936	364,322060	42,735	0,017636	22,430000	56,250000
3,044864	349,461022	43,037	0,011424	22,430000	56,250000
3,029905	334,719133	43,348	0,005262	22,430000	56,250000
3,014861	323,474647	43,661	0,000562	22,430000	56,250000
2,999856	307,269083	43,970	-0,006212	22,430000	56,250000
2,984877	294,845946	44,273	-0,011405	22,430000	56,250000
2,969912	279,083106	44,574	-0,017994	22,430000	56,250000
2,954896	266,018662	44,878	-0,023455	22,430000	56,250000
2,939877	252,748626	45,181	-0,029001	22,430000	56,250000
2,924898	238,102525	45,481	-0,035124	22,430000	56,250000
2,909860	224,278792	45,783	-0,040902	22,430000	56,250000
2,894861	207,320948	46,086	-0,047990	22,430000	56,250000
2,879941	195,775082	46,408	-0,052816	22,430000	56,250000
2,864857	181,294856	46,713	-0,058869	22,430000	56,235000
2,849922	167,336788	47,014	-0,064704	22,430000	56,235000
2,834881	153,456985	47,324	-0,070505	22,430000	56,235000
2,819923	139,363412	47,627	-0,076396	22,430000	56,235000
2,804877	124,740674	47,930	-0,082509	22,430000	56,235000
2,789920	108,361057	48,231	-0,089355	22,430000	56,235000
2,774905	96,301211	48,535	-0,094396	22,430000	56,235000
2,759905	82,374682	48,836	-0,100218	22,420000	56,250000
2,744861	68,534596	49,137	-0,106003	22,420000	56,250000
2,729926	52,131616	49,439	-0,112859	22,420000	56,250000
2,714886	40,103310	49,755	-0,117887	22,420000	56,250000
2,699967	23,921109	50,062	-0,124651	22,420000	56,250000
2,684935	9,986403	50,380	-0,130476	22,420000	56,250000
2,669935	-1,543109	50,682	-0,135295	22,420000	56,250000
2,659920	-11,156876	50,884	-0,139314	22,420000	56,250000