File: Nanoindentation Datenauswertung/data/S_calib/S_calib_2308-2x2
Quasi static measurement routine
Tip parameters (shape,radius, material...)
23.08.2022

Piezo position[nm]	MEMS displ.[nm]	Time[ms]	Cap [pf]	Temp [°C]	Rh [%]
eoh

X-Pos [um]	Y-Pos [um]
0,000013	0,000000

POC
2,615900
2,330824	0,231355	0,892	-0,134601	22,350000	51,645000
2,346821	0,181431	1,696	-0,134621	22,350000	51,645000
2,362889	0,264232	2,502	-0,134587	22,350000	51,645000
2,378790	0,148554	3,309	-0,134634	22,350000	51,645000
2,394876	0,321462	4,114	-0,134564	22,350000	51,645000
2,410932	0,215526	4,918	-0,134607	22,350000	51,645000
2,426799	0,181431	5,726	-0,134621	22,340000	51,655000
2,442832	0,321462	6,530	-0,134564	22,340000	51,655000
2,458836	0,091324	7,332	-0,134657	22,340000	51,655000
2,474838	0,058448	8,142	-0,134670	22,340000	51,645000
2,490851	-0,015830	8,944	-0,134700	22,340000	51,645000
2,506863	-0,255708	9,749	-0,134796	22,340000	51,645000
2,522842	-0,271538	10,556	-0,134802	22,340000	51,645000
2,538824	-0,371386	11,400	-0,134842	22,340000	51,645000
2,554855	-0,527246	12,208	-0,134905	22,340000	51,645000
2,570850	-0,758602	13,009	-0,134998	22,340000	51,645000
2,586833	-4,528474	13,845	-0,136509	22,340000	51,645000
2,602826	10,566845	14,665	-0,130456	22,340000	51,645000
2,618827	25,512391	15,472	-0,124463	22,340000	51,655000
2,634818	41,762050	16,276	-0,117947	22,340000	51,655000
2,650814	57,301814	17,097	-0,111715	22,340000	51,655000
2,666810	73,527120	17,902	-0,105209	22,350000	51,670000
2,682891	88,902500	18,707	-0,099043	22,350000	51,670000
2,698806	105,019434	19,517	-0,092581	22,350000	51,670000
2,714807	120,733323	20,322	-0,086279	22,350000	51,670000
2,730840	136,693179	21,130	-0,079879	22,350000	51,670000
2,746880	152,678606	21,938	-0,073469	22,350000	51,630000
2,762823	168,383972	22,742	-0,067171	22,350000	51,630000
2,778885	184,030890	23,544	-0,060897	22,350000	51,670000
2,794880	199,959087	24,349	-0,054510	22,350000	51,670000
2,810803	216,703115	25,151	-0,047795	22,350000	51,670000
2,826839	231,739986	25,959	-0,041766	22,340000	51,630000
2,842817	248,789647	26,767	-0,034929	22,340000	51,630000
2,858777	263,785117	27,592	-0,028916	22,350000	51,645000
2,874811	279,523360	28,399	-0,022604	22,350000	51,645000
2,890750	296,424466	29,202	-0,015827	22,350000	51,645000
2,906821	312,409893	30,022	-0,009417	22,350000	51,645000
2,922848	328,040982	30,828	-0,003149	22,350000	51,645000
2,938769	343,193530	31,635	0,002927	22,340000	51,645000
2,954795	358,931772	32,454	0,009238	22,340000	51,645000
2,970799	374,867275	33,257	0,015628	22,340000	51,645000
2,986868	390,704148	34,060	0,021979	22,350000	51,645000
3,002859	407,110885	34,863	0,028558	22,350000	51,645000
3,018816	422,534971	35,673	0,034743	22,350000	51,645000
3,034815	439,477478	36,478	0,041537	22,350000	51,645000
3,050831	454,695780	37,285	0,047640	22,350000	51,645000
3,066764	470,112560	38,092	0,053822	22,350000	51,620000
3,082772	486,880942	38,897	0,060546	22,350000	51,620000
3,098758	502,776262	39,699	0,066920	22,350000	51,645000
3,114774	517,498977	40,511	0,072824	22,350000	51,645000
3,130804	533,665835	41,316	0,079307	22,350000	51,645000
3,146743	550,592513	42,119	0,086094	22,350000	51,645000
3,162763	565,380981	42,922	0,092024	22,350000	51,645000
3,178782	580,929269	43,730	0,098259	22,350000	51,655000
3,194757	596,907390	44,532	0,104667	22,350000	51,655000
3,210792	613,074248	45,353	0,111149	22,350000	51,655000
3,226760	629,241106	46,159	0,117632	22,340000	51,630000
3,242751	644,336425	46,967	0,123686	22,340000	51,630000
3,258789	660,881975	47,769	0,130320	22,350000	51,630000
3,274787	676,323108	48,589	0,136512	22,350000	51,630000
3,290681	692,647044	49,392	0,143058	22,350000	51,630000
3,306753	708,475394	50,207	0,149405	22,350000	51,630000
3,322714	723,883650	51,011	0,155584	22,350000	51,630000
3,338749	741,031942	51,813	0,162460	22,350000	51,645000
3,354700	755,500166	52,619	0,168262	22,350000	51,645000
3,370736	771,402792	53,425	0,174639	22,350000	51,645000
3,386761	787,141034	54,229	0,180950	22,350000	51,645000
3,402775	803,250662	55,052	0,187410	22,350000	51,645000
3,418700	819,706106	55,860	0,194009	22,350000	51,620000
3,434718	835,617256	56,667	0,200389	22,350000	51,620000
3,450706	851,594159	57,470	0,206796	22,350000	51,645000
3,466730	867,480956	58,272	0,213167	22,350000	51,645000
3,482728	882,096517	59,078	0,219027	22,350000	51,645000
3,498692	898,231716	59,887	0,225498	22,350000	51,645000
3,514728	914,217143	60,696	0,231908	22,350000	51,645000
3,530703	931,208356	61,504	0,238721	22,340000	51,645000
3,546706	946,105196	62,309	0,244695	22,340000	51,645000
3,562693	961,513453	63,112	0,250874	22,340000	51,645000
3,578675	977,341802	63,921	0,257221	22,340000	51,645000
3,594745	994,151584	64,724	0,263961	22,340000	51,645000
3,610652	1010,154058	65,545	0,270378	22,340000	51,645000
3,615669	1014,798210	66,349	0,272241	22,340000	51,645000
3,615699	1014,426824	67,155	0,272092	22,340000	51,645000
3,615687	1015,128195	67,965	0,272373	22,360000	51,660000
3,615681	1014,393947	68,772	0,272079	22,360000	51,660000
3,615661	1014,616778	69,578	0,272168	22,340000	51,645000
3,615659	1013,923930	70,385	0,271890	22,340000	51,645000
3,615788	1014,369594	71,189	0,272069	22,340000	51,645000
3,615692	1013,593945	71,996	0,271758	22,340000	51,655000
3,615691	1013,453914	72,798	0,271702	22,340000	51,655000
3,615729	1013,494097	73,615	0,271718	22,340000	51,655000
3,615691	1013,106881	74,435	0,271562	22,340000	51,655000
3,615705	1013,074004	75,242	0,271549	22,340000	51,655000
3,612667	1011,308399	76,048	0,270841	22,350000	51,645000
3,596712	994,795726	76,859	0,264220	22,350000	51,645000
3,580720	977,523233	77,665	0,257293	22,340000	51,655000
3,564687	962,519239	78,469	0,251277	22,340000	51,655000
3,548757	944,752377	79,272	0,244152	22,340000	51,655000
3,532679	929,822660	80,073	0,238166	22,350000	51,655000
3,516707	913,185786	80,877	0,231494	22,350000	51,655000
3,500775	897,183311	81,680	0,225077	22,350000	51,655000
3,484712	881,543699	82,486	0,218806	22,350000	51,655000
3,468759	865,435289	83,291	0,212346	22,350000	51,655000
3,452739	848,427028	84,096	0,205526	22,350000	51,645000
3,436759	833,110096	84,901	0,199384	22,350000	51,645000
3,420746	817,437607	85,704	0,193099	22,340000	51,630000
3,404772	800,239392	86,507	0,186203	22,340000	51,630000
3,388741	784,600998	87,336	0,179932	22,340000	51,630000
3,372740	768,070059	88,141	0,173303	22,340000	51,655000
3,356735	751,895895	88,948	0,166817	22,340000	51,655000
3,340730	736,940607	89,758	0,160820	22,340000	51,655000
3,324784	721,079382	90,559	0,154459	22,340000	51,655000
3,308748	704,342659	91,372	0,147748	22,340000	51,655000
3,292793	688,068647	92,177	0,141222	22,340000	51,645000
3,276743	673,015946	92,982	0,135186	22,340000	51,645000
3,260804	657,236304	93,787	0,128858	22,350000	51,630000
3,244788	640,945244	94,589	0,122326	22,350000	51,630000
3,228750	624,019785	95,391	0,115539	22,350000	51,630000
3,212808	608,257189	96,197	0,109218	22,350000	51,630000
3,196790	592,081807	97,002	0,102731	22,350000	51,630000
3,180771	576,524996	97,810	0,096493	22,340000	51,655000
3,164822	560,869555	98,617	0,090215	22,340000	51,655000
3,148784	544,744097	99,422	0,083749	22,350000	51,655000
3,132810	529,080132	100,228	0,077468	22,350000	51,655000
3,116843	512,847520	101,056	0,070958	22,350000	51,655000
3,100842	497,117801	101,863	0,064651	22,360000	51,635000
3,084856	480,496756	102,671	0,057986	22,360000	51,635000
3,068781	465,138423	103,483	0,051827	22,340000	51,630000
3,052820	449,531688	104,289	0,045569	22,340000	51,630000
3,036819	432,746259	105,096	0,038838	22,340000	51,630000
3,020886	416,629325	105,899	0,032375	22,340000	51,630000
3,004863	401,749532	106,705	0,026408	22,340000	51,630000
2,988722	384,955580	107,512	0,019674	22,340000	51,655000
2,972811	370,240171	108,329	0,013773	22,340000	51,655000
2,956880	353,981988	109,144	0,007253	22,340000	51,655000
2,940853	338,195040	109,957	0,000923	22,340000	51,670000
2,924835	322,358167	110,759	-0,005428	22,340000	51,670000
2,908864	306,191309	111,562	-0,011911	22,340000	51,655000
2,892828	289,578787	112,367	-0,018572	22,340000	51,655000
2,876843	274,474945	113,198	-0,024629	22,340000	51,655000
2,860807	258,473689	114,002	-0,031045	22,350000	51,645000
2,844831	242,752494	114,807	-0,037350	22,350000	51,645000
2,828801	225,578632	115,609	-0,044236	22,350000	51,645000
2,812877	210,723192	116,412	-0,050193	22,350000	51,645000
2,796835	195,109151	117,218	-0,056455	22,350000	51,645000
2,780872	178,339552	118,024	-0,063179	22,350000	51,645000
2,764860	162,675586	118,835	-0,069460	22,350000	51,645000
2,748867	147,367178	119,638	-0,075599	22,350000	51,630000
2,732903	131,034718	120,448	-0,082148	22,350000	51,630000
2,716845	114,819153	121,256	-0,088651	22,350000	51,630000
2,700886	100,037991	122,058	-0,094578	22,350000	51,645000
2,684866	83,541147	122,861	-0,101193	22,350000	51,645000
2,668809	67,448566	123,664	-0,107646	22,350000	51,645000
2,652869	52,196170	124,478	-0,113763	22,350000	51,645000
2,636879	35,576342	125,297	-0,120427	22,350000	51,645000
2,620852	20,398223	126,102	-0,126514	22,350000	51,630000
2,604908	3,324209	126,908	-0,133360	22,350000	51,630000
2,588888	-12,289832	127,711	-0,139622	22,350000	51,645000
2,572857	-28,472520	128,513	-0,146111	22,350000	51,645000
2,556879	-44,590672	129,316	-0,152574	22,350000	51,645000
2,540877	-61,830288	130,122	-0,159487	22,340000	51,645000
2,524892	-77,997146	130,932	-0,165970	22,340000	51,645000
2,508915	-93,842542	131,748	-0,172324	22,340000	51,645000
2,492845	-109,415183	132,562	-0,178569	22,340000	51,645000
2,476843	-126,836230	133,370	-0,185555	22,340000	51,645000
2,460851	-141,468838	134,177	-0,191422	22,350000	51,655000
2,444902	-158,765683	134,996	-0,198358	22,350000	51,655000
2,428864	-174,016862	135,807	-0,204474	22,340000	51,655000
2,412862	-190,703661	136,610	-0,211166	22,340000	51,655000
2,396866	-206,886349	137,423	-0,217655	22,350000	51,655000
2,380892	-221,997496	138,237	-0,223714	22,350000	51,655000
2,364884	-237,398447	139,061	-0,229890	22,350000	51,655000
2,348898	-0,032877	139,870	-0,134707	22,350000	51,655000
2,332894	0,034094	140,691	-0,134680	22,350000	51,655000
2,316859	0,132725	141,502	-0,134640	22,340000	51,685000
2,315818	0,305632	141,552	-0,134571	22,340000	51,685000

X-Pos [um]	Y-Pos [um]
0,000000	2,000975

POC
2,619679
2,334649	-0,321462	0,909	-0,134703	22,340000	51,645000
2,350672	0,065754	1,713	-0,134548	22,340000	51,645000
2,366670	-0,263014	2,514	-0,134680	22,340000	51,655000
2,382693	-0,189955	3,316	-0,134650	22,340000	51,655000
2,398722	-0,032877	4,118	-0,134587	22,340000	51,645000
2,414703	0,065754	4,924	-0,134548	22,340000	51,645000
2,430650	-0,115678	5,751	-0,134621	22,340000	51,645000
2,446637	-0,494370	6,554	-0,134772	22,340000	51,655000
2,462665	-0,057230	7,362	-0,134597	22,340000	51,655000
2,478696	-0,304415	8,162	-0,134696	22,350000	51,655000
2,494655	-0,172908	8,963	-0,134644	22,350000	51,655000
2,510624	-0,535770	9,767	-0,134789	22,350000	51,655000
2,526700	-0,502893	10,574	-0,134776	22,350000	51,655000
2,542653	-0,527246	11,380	-0,134786	22,350000	51,655000
2,558626	-1,171388	12,184	-0,135044	22,340000	51,630000
2,574637	-1,798482	12,987	-0,135295	22,340000	51,630000
2,590677	-5,451459	13,794	-0,136760	22,340000	51,630000
2,606610	11,316923	14,599	-0,130036	22,340000	51,655000
2,622652	25,900824	15,403	-0,124188	22,340000	51,655000
2,638637	42,463422	16,207	-0,117546	22,340000	51,655000
2,654639	57,764524	17,012	-0,111411	22,340000	51,655000
2,670669	73,312812	17,815	-0,105176	22,340000	51,655000
2,686608	90,065364	18,618	-0,098458	22,360000	51,660000
2,702630	104,805126	19,423	-0,092547	22,360000	51,660000
2,718604	121,063309	20,227	-0,086028	22,350000	51,655000
2,734604	136,767456	21,031	-0,079730	22,350000	51,655000
2,750640	152,489869	21,835	-0,073426	22,350000	51,655000
2,766640	168,853988	22,640	-0,066864	22,350000	51,645000
2,782621	184,097861	23,445	-0,060751	22,350000	51,645000
2,798630	200,247672	24,248	-0,054275	22,360000	51,635000
2,814665	216,686068	25,055	-0,047683	22,360000	51,635000
2,830631	232,185649	25,860	-0,041468	22,360000	51,635000
2,846663	248,278230	26,667	-0,035015	22,350000	51,655000
2,862636	263,488008	27,468	-0,028916	22,350000	51,655000
2,878641	280,034776	28,276	-0,022280	22,350000	51,655000
2,894626	295,443033	29,080	-0,016102	22,350000	51,655000
2,910612	312,022678	29,882	-0,009453	22,350000	51,655000
2,926592	326,893947	30,684	-0,003490	22,350000	51,655000
2,942605	342,747867	31,485	0,002868	22,350000	51,655000
2,958628	359,937558	32,288	0,009761	22,340000	51,645000
2,974650	375,675801	33,093	0,016072	22,340000	51,645000
2,990605	391,182688	33,897	0,022290	22,340000	51,645000
3,006623	407,358070	34,710	0,028776	22,350000	51,655000
3,022611	422,320663	35,519	0,034776	22,350000	51,655000
3,038587	438,107612	36,322	0,041107	22,350000	51,655000
3,054633	453,854378	37,128	0,047421	22,350000	51,655000
3,070616	469,765528	37,936	0,053802	22,350000	51,655000
3,086593	486,443803	38,742	0,060490	22,340000	51,645000
3,102605	501,959213	39,548	0,066711	22,340000	51,645000
3,118575	517,671885	40,355	0,073012	22,340000	51,655000
3,134622	533,121542	41,160	0,079208	22,340000	51,655000
3,150590	548,735583	41,979	0,085469	22,340000	51,655000
3,166589	566,008076	42,784	0,092395	22,340000	51,630000
3,182599	580,937792	43,593	0,098382	22,340000	51,630000
3,198618	596,923219	44,395	0,104792	22,340000	51,630000
3,214578	612,587184	45,197	0,111073	22,340000	51,630000
3,230554	629,496815	46,011	0,117854	22,340000	51,630000
3,246592	644,245100	46,814	0,123768	22,340000	51,630000
3,262577	659,834788	47,615	0,130020	22,340000	51,630000
3,278549	676,677447	48,423	0,136773	22,340000	51,630000
3,294564	693,001383	49,232	0,143319	22,340000	51,630000
3,310572	707,774022	50,054	0,149243	22,340000	51,645000
3,326608	724,626422	50,857	0,156001	22,340000	51,645000
3,342508	740,124786	51,662	0,162216	22,340000	51,645000
3,358566	755,557396	52,466	0,168404	22,350000	51,655000
3,374528	771,179960	53,273	0,174669	22,350000	51,655000
3,390535	787,709681	54,082	0,181297	22,340000	51,645000
3,406521	803,793738	54,886	0,187747	22,340000	51,645000
3,422572	819,070488	55,694	0,193873	22,340000	51,645000
3,438550	835,401730	56,502	0,200422	22,340000	51,645000
3,454522	850,678480	57,307	0,206548	22,340000	51,645000
3,470513	867,389631	58,114	0,213249	22,340000	51,620000
3,486473	882,039287	58,915	0,219124	22,340000	51,620000
3,502514	898,116038	59,717	0,225570	22,340000	51,620000
3,518498	913,820186	60,522	0,231868	22,350000	50,800000
3,534562	929,599829	61,328	0,238195	22,350000	50,800000
3,550529	946,435182	62,133	0,244946	22,350000	50,800000
3,566535	960,976465	62,950	0,250777	22,350000	50,800000
3,582550	977,044693	63,763	0,257221	22,350000	50,800000
3,598523	993,220075	64,563	0,263707	22,350000	51,670000
3,614549	1009,081301	65,369	0,270067	22,350000	51,670000
3,619439	1014,484054	66,172	0,272234	22,350000	51,685000
3,619473	1014,352546	66,974	0,272181	22,350000	51,685000
3,619545	1013,799729	67,780	0,271959	22,350000	51,685000
3,619519	1013,832606	68,585	0,271973	22,350000	51,670000
3,619457	1013,469744	69,389	0,271827	22,350000	51,670000
3,619471	1013,461220	70,193	0,271824	22,340000	51,630000
3,619490	1013,412514	70,995	0,271804	22,340000	51,630000
3,619448	1013,263959	71,802	0,271745	22,340000	51,630000
3,619445	1012,908403	72,603	0,271602	22,350000	51,645000
3,619491	1012,991204	73,405	0,271635	22,350000	51,645000
3,619517	1012,702618	74,211	0,271520	22,350000	51,645000
3,619416	1012,678265	75,013	0,271510	22,350000	51,645000
3,616481	1010,442643	75,818	0,270613	22,350000	51,645000
3,600503	994,127231	76,636	0,264071	22,360000	51,650000
3,584520	977,918972	77,439	0,257571	22,360000	51,650000
3,568448	961,142067	78,244	0,250844	22,360000	51,650000
3,552497	945,915241	79,054	0,244738	22,360000	51,650000
3,536496	929,582781	79,867	0,238188	22,360000	51,650000
3,520557	913,061584	80,669	0,231563	22,340000	51,630000
3,504529	896,564740	81,475	0,224948	22,340000	51,630000
3,488479	881,189361	82,283	0,218783	22,350000	51,620000
3,472500	865,286734	83,088	0,212406	22,350000	51,620000
3,456524	849,078476	83,891	0,205906	22,350000	51,620000
3,440550	833,200203	84,693	0,199539	22,350000	51,645000
3,424573	816,893314	85,507	0,193000	22,350000	51,645000
3,408521	801,179424	86,312	0,186699	22,350000	51,645000
3,392517	784,492626	87,121	0,180007	22,350000	51,645000
3,376520	768,524246	87,925	0,173604	22,350000	51,645000
3,360542	752,621620	88,730	0,167227	22,340000	51,645000
3,344550	735,414881	89,533	0,160327	22,340000	51,645000
3,328570	720,857768	90,334	0,154490	22,340000	51,655000
3,312548	704,788322	91,156	0,148046	22,340000	51,655000
3,296582	688,818725	91,967	0,141642	22,340000	51,655000
3,280591	672,537406	92,779	0,135113	22,340000	51,645000
3,264572	656,733411	93,587	0,128776	22,340000	51,645000
3,248586	639,443871	94,391	0,121843	22,350000	51,645000
3,232557	624,712632	95,214	0,115936	22,350000	51,645000
3,216579	608,339990	96,016	0,109370	22,350000	51,645000
3,200602	593,087594	96,826	0,103254	22,350000	51,645000
3,184564	576,723475	97,636	0,096692	22,350000	51,645000
3,168591	560,589493	98,437	0,090222	22,350000	51,645000
3,152564	545,188542	99,252	0,084046	22,350000	51,645000
3,136623	528,914530	100,056	0,077521	22,340000	51,645000
3,120567	511,923317	100,868	0,070707	22,340000	51,645000
3,104623	496,737892	101,674	0,064618	22,340000	51,645000
[...]
2,710360	119,719013	20,399	-0,086484	22,350000	51,645000
2,726350	136,074608	21,231	-0,079926	22,350000	51,645000
2,742367	152,687130	22,034	-0,073264	22,350000	51,645000
2,758399	167,732524	22,845	-0,067231	22,340000	51,605000
2,774382	183,685074	23,649	-0,060834	22,340000	51,605000
2,790347	199,191962	24,476	-0,054616	22,350000	51,645000
2,806326	216,315900	25,281	-0,047749	22,350000	51,645000
2,822377	232,202696	26,089	-0,041378	22,350000	51,645000
2,838375	248,072446	26,893	-0,035015	22,340000	51,645000
2,854375	262,993639	27,705	-0,029031	22,340000	51,645000
2,870367	278,426249	28,513	-0,022843	22,350000	51,630000
2,886316	294,824462	29,334	-0,016267	22,350000	51,630000
2,902316	311,495431	30,136	-0,009582	22,350000	51,630000
2,918317	326,243717	30,961	-0,003668	22,350000	51,645000
2,934381	342,813620	31,772	0,002977	22,350000	51,645000
2,950341	358,321725	32,606	0,009195	22,340000	51,630000
2,966296	374,958600	33,433	0,015867	22,340000	51,630000
2,982347	390,869749	34,246	0,022247	22,340000	51,630000
2,998357	405,633865	35,064	0,028167	22,360000	51,650000
3,014310	421,644862	35,868	0,034588	22,360000	51,650000
3,030308	437,506088	36,700	0,040948	22,340000	51,655000
3,046295	453,401409	37,514	0,047322	22,340000	51,655000
3,062372	468,974049	38,335	0,053567	22,340000	51,655000
3,078366	485,487940	39,137	0,060189	22,340000	51,655000
3,094361	501,431967	39,972	0,066583	22,340000	51,655000
3,110316	516,683146	40,800	0,072698	22,350000	51,630000
3,126333	533,171466	41,618	0,079310	22,350000	51,630000
3,142377	549,421125	42,427	0,085826	22,340000	51,645000
3,158336	565,480829	43,245	0,092266	22,340000	51,645000
3,174344	580,641901	44,053	0,098346	22,340000	51,645000
3,190301	596,470250	44,854	0,104693	22,340000	51,655000
3,206323	612,084291	45,661	0,110954	22,340000	51,655000
3,222260	628,648106	46,480	0,117596	22,340000	51,655000
3,238305	643,700807	47,317	0,123632	22,340000	51,655000
3,254294	660,807698	48,127	0,130492	22,340000	51,655000
3,270278	675,243045	48,938	0,136281	22,350000	51,630000
3,286296	691,285702	49,753	0,142714	22,350000	51,630000
3,302282	708,302486	50,583	0,149538	22,350000	51,630000
3,318259	723,800849	51,402	0,155752	22,350000	51,630000
3,334291	739,556139	52,204	0,162070	22,350000	51,630000
3,350235	755,004578	53,026	0,168265	22,350000	51,630000
3,366251	770,611314	53,844	0,174523	22,350000	51,630000
3,382270	787,322465	54,652	0,181225	22,350000	51,645000
3,398311	802,070751	55,459	0,187139	22,350000	51,645000
3,414323	818,296057	56,285	0,193645	22,350000	51,645000
3,430215	833,167326	57,112	0,199608	22,350000	51,645000
3,446203	850,654126	57,927	0,206621	22,350000	51,645000
3,462200	865,369535	58,734	0,212521	22,350000	51,630000
3,478207	881,462116	59,536	0,218975	22,350000	51,630000
3,494269	897,109034	60,348	0,225249	22,350000	51,620000
3,510234	912,980001	61,153	0,231613	22,350000	51,620000
3,526273	929,187042	61,960	0,238112	22,350000	51,620000
3,542287	945,132286	62,764	0,244506	22,350000	51,620000
3,558193	960,457742	63,569	0,250652	22,350000	51,620000
3,574263	977,514709	64,372	0,257492	22,350000	51,620000
3,590180	992,502874	65,178	0,263502	22,350000	51,620000
3,606264	1008,521178	65,982	0,269925	22,350000	51,620000
3,611242	1013,759546	66,826	0,272026	22,350000	51,645000
3,611245	1012,983898	67,635	0,271715	22,350000	51,645000
3,611197	1013,412514	68,442	0,271887	22,340000	51,645000
3,611190	1013,329713	69,257	0,271854	22,340000	51,645000
3,611279	1012,629559	70,063	0,271573	22,340000	51,645000
3,611268	1012,868220	70,891	0,271668	22,350000	51,645000
3,611186	1012,621035	71,731	0,271569	22,350000	51,645000
3,611198	1012,224078	72,541	0,271410	22,350000	51,645000
3,611256	1012,042647	73,358	0,271337	22,350000	51,645000
3,611219	1012,166849	74,164	0,271387	22,350000	51,645000
3,611210	1012,339756	74,969	0,271457	22,340000	51,655000
3,611301	1011,672479	75,773	0,271189	22,340000	51,655000
3,608250	1009,766843	76,600	0,270425	22,350000	51,630000
3,592231	992,601504	77,418	0,263542	22,350000	51,630000
3,576271	976,558847	78,244	0,257108	22,350000	51,630000
3,560296	961,109190	79,051	0,250913	22,340000	51,645000
3,544211	944,208083	79,865	0,244136	22,340000	51,645000
3,528214	928,891151	80,679	0,237994	22,340000	51,670000
3,512245	913,078632	81,497	0,231653	22,340000	51,670000
3,496208	896,903250	82,302	0,225167	22,340000	51,655000
3,480219	880,373529	83,110	0,218538	22,340000	51,655000
3,464197	864,296778	83,921	0,212091	22,340000	51,655000
3,448270	848,534182	84,750	0,205771	22,340000	51,630000
3,432269	832,087262	85,551	0,199175	22,340000	51,630000
3,416215	815,499094	86,363	0,192523	22,350000	51,655000
3,400305	800,090837	87,176	0,186345	22,350000	51,655000
3,384306	783,932503	88,005	0,179865	22,350000	51,655000
3,368238	767,988476	88,824	0,173472	22,350000	51,655000
3,352281	752,374435	89,632	0,167210	22,350000	51,655000
3,336274	735,134819	90,435	0,160297	22,350000	51,645000
3,320259	719,455025	91,249	0,154010	22,350000	51,645000
3,304316	704,228199	92,070	0,147904	22,350000	51,645000
3,288292	688,332879	92,872	0,141530	22,350000	51,645000
3,272277	671,770281	93,683	0,134888	22,350000	51,645000
3,256316	655,594899	94,496	0,128402	22,350000	51,630000
3,240294	640,228043	95,316	0,122240	22,350000	51,630000
3,224362	624,176863	96,144	0,115803	22,350000	51,630000
3,208336	608,125682	96,959	0,109367	22,340000	51,630000
3,192280	591,199004	97,766	0,102579	22,340000	51,630000
3,176284	575,634887	98,579	0,096338	22,340000	51,620000
3,160330	560,349614	99,390	0,090208	22,340000	51,620000
3,144309	543,968448	100,199	0,083640	22,340000	51,620000
3,128403	527,752883	101,014	0,077137	22,340000	51,620000
3,112383	512,707489	101,823	0,071104	22,340000	51,620000
3,096363	495,459350	102,637	0,064187	22,350000	51,620000
3,080312	480,851095	103,485	0,058330	22,350000	51,620000
3,064349	465,064146	104,294	0,051999	22,340000	51,605000
3,048360	448,600179	105,120	0,045397	22,340000	51,605000
3,032322	432,721906	105,926	0,039030	22,340000	51,605000
3,016310	416,843633	106,733	0,032663	22,350000	51,630000
3,000335	401,146791	107,545	0,026368	22,350000	51,630000
2,984352	385,235641	108,355	0,019988	22,350000	51,630000
2,968359	368,837428	109,191	0,013412	22,350000	51,630000
2,952378	352,886095	109,996	0,007016	22,350000	51,630000
2,936370	337,816348	110,800	0,000973	22,340000	51,645000
2,920365	322,044011	111,615	-0,005352	22,340000	51,645000
2,904310	305,695722	112,447	-0,011908	22,350000	51,655000
2,888330	289,240278	113,262	-0,018506	22,350000	51,655000
2,872346	274,393362	114,072	-0,024460	22,350000	51,655000
2,856369	258,375058	114,875	-0,030883	22,350000	51,630000
2,840383	242,695264	115,692	-0,037171	22,350000	51,630000
2,824328	226,782896	116,494	-0,043552	22,350000	51,630000
2,808327	210,805993	117,299	-0,049958	22,350000	51,630000
2,792339	194,861966	118,104	-0,056352	22,350000	51,630000
2,776318	178,992217	118,905	-0,062716	22,350000	51,645000
2,760403	162,989742	119,709	-0,069133	22,350000	51,645000
2,744315	146,740083	120,512	-0,075649	22,340000	51,630000
2,728395	131,538829	121,319	-0,081745	22,340000	51,630000
2,712381	115,767710	122,129	-0,088069	22,340000	51,630000
2,696325	99,039511	122,932	-0,094777	22,350000	51,630000
2,680399	83,252562	123,735	-0,101107	22,350000	51,630000
2,664352	68,240044	124,544	-0,107127	22,350000	51,630000
2,648365	52,460402	125,352	-0,113455	22,350000	51,630000
2,632392	36,962038	126,155	-0,119670	22,350000	51,630000
2,616400	19,829576	126,966	-0,126540	22,340000	51,655000
2,600388	4,132735	127,774	-0,132834	22,340000	51,655000
2,584354	-11,175674	128,591	-0,138973	22,350000	51,655000
2,568353	-26,319699	129,402	-0,145046	22,350000	51,655000
2,552314	-42,775142	130,208	-0,151645	22,350000	51,655000
2,536331	-58,159046	131,016	-0,157813	22,340000	51,645000
2,520431	-73,501549	131,821	-0,163966	22,340000	51,645000
2,504368	-89,124114	132,646	-0,170230	22,340000	51,645000
2,488383	-104,969510	133,454	-0,176584	22,340000	51,645000
2,472322	-121,820692	134,258	-0,183342	22,340000	51,645000
2,456383	-137,047518	135,064	-0,189448	22,350000	51,685000
2,440367	-154,038731	135,866	-0,196261	22,350000	51,685000
2,424331	-170,131312	136,669	-0,202714	22,350000	51,630000
2,408376	-186,702433	137,471	-0,209359	22,350000	51,630000
2,392356	-201,863505	138,273	-0,215439	22,350000	51,630000
2,376347	-218,211795	139,077	-0,221995	22,350000	51,620000
2,360395	-234,584437	139,885	-0,228560	22,350000	51,620000
2,344382	-249,959817	140,709	-0,234726	22,350000	51,620000
2,328407	-265,525152	141,513	-0,240967	22,350000	51,620000
2,312385	0,091324	142,322	-0,134455	22,340000	51,645000
2,311305	-0,024353	142,372	-0,134501	22,340000	51,645000