File: Nanoindentation Datenauswertung/data/S_calib/S_calib_1808-3
Quasi static measurement routine
Tip parameters (shape,radius, material...)
18.08.2022

Piezo position[nm]	MEMS displ.[nm]	Time[ms]	Cap [pf]	Temp [°C]	Rh [%]
eoh
2,659989	0,182229	0,189	-0,137835	22,430000	56,235000
2,673325	11,260840	0,601	-0,133205	22,430000	56,260000
2,686669	24,007551	1,003	-0,127876	22,430000	56,260000
2,700000	38,014681	1,406	-0,122021	22,430000	56,260000
2,713287	50,983338	1,806	-0,116601	22,430000	56,260000
2,726654	63,999888	2,215	-0,111160	22,430000	56,260000
2,739980	75,996654	2,616	-0,106145	22,430000	56,275000
2,753299	87,874271	3,018	-0,101180	22,430000	56,275000
2,766608	100,297408	3,430	-0,095987	22,430000	56,275000
2,779910	114,817350	3,833	-0,089918	22,430000	56,275000
2,793357	126,512737	4,236	-0,085029	22,430000	56,275000
2,806552	138,952228	4,639	-0,079830	22,430000	56,275000
2,819949	151,043614	5,043	-0,074775	22,430000	56,275000
2,833318	163,932837	5,444	-0,069388	22,430000	56,275000
2,846596	177,005458	5,847	-0,063923	22,430000	56,275000
2,859977	189,492842	6,251	-0,058704	22,430000	56,275000
2,873309	203,561883	6,653	-0,052823	22,430000	56,235000
2,886641	216,435921	7,055	-0,047441	22,430000	56,235000
2,899936	227,095170	7,458	-0,042986	22,430000	56,235000
2,913314	239,882766	7,860	-0,037641	22,430000	56,235000
2,926605	252,867776	8,260	-0,032213	22,430000	56,235000
2,939957	266,414661	8,661	-0,026550	22,430000	56,235000
2,953300	278,022438	9,065	-0,021698	22,430000	56,235000
2,966571	290,193257	9,467	-0,016611	22,430000	56,235000
2,979893	302,465703	9,871	-0,011481	22,430000	56,235000
2,993265	315,989225	10,273	-0,005828	22,420000	56,250000
3,006574	328,024540	10,678	-0,000797	22,420000	56,250000
3,019910	341,816733	11,078	0,004968	22,420000	56,250000
3,033335	354,232861	11,479	0,010158	22,420000	56,250000
3,046589	366,133840	11,882	0,015132	22,420000	56,250000
3,059939	378,122430	12,284	0,020144	22,420000	56,250000
3,073285	391,281493	12,686	0,025644	22,420000	56,250000
3,086630	405,436977	13,093	0,031561	22,420000	56,250000
3,099918	416,041324	13,494	0,035994	22,420000	56,250000
3,113259	430,228347	13,896	0,041924	22,420000	56,250000
3,126592	441,615347	14,299	0,046684	22,430000	56,250000
3,139953	454,015120	14,703	0,051867	22,430000	56,250000
3,153233	468,377364	15,106	0,057870	22,430000	56,250000
3,166572	478,617253	15,507	0,062150	22,430000	56,250000
3,179914	492,986506	15,909	0,068157	22,430000	56,250000
3,193211	505,402633	16,313	0,073347	22,430000	56,250000
3,206597	517,706620	16,715	0,078490	22,430000	56,250000
3,219920	529,148522	17,118	0,083272	22,430000	56,250000
3,233250	541,967657	17,519	0,088631	22,430000	56,250000
3,246532	554,035680	17,927	0,093675	22,430000	56,250000
3,259922	568,421286	18,331	0,099688	22,430000	56,250000
3,273190	579,380747	18,732	0,104270	22,430000	56,250000
3,286590	593,457966	19,133	0,110154	22,430000	56,250000
3,299870	605,786483	19,538	0,115307	22,430000	56,250000
3,313199	616,911820	19,941	0,119958	22,430000	56,250000
3,326586	630,862879	20,346	0,125789	22,420000	56,260000
3,339898	642,835115	20,748	0,130793	22,420000	56,260000
3,353214	655,859842	21,149	0,136238	22,420000	56,260000
3,366553	667,989776	21,552	0,141308	22,420000	56,260000
3,379855	679,891924	21,954	0,146283	22,420000	56,260000
3,393199	692,346600	22,357	0,151489	22,430000	56,275000
3,406642	704,437986	22,759	0,156543	22,430000	56,275000
3,419912	716,844769	23,161	0,161729	22,430000	56,275000
3,433189	731,215190	23,565	0,167736	22,430000	56,275000
3,446554	742,015784	23,966	0,172251	22,430000	56,275000
3,459882	754,352478	24,378	0,177408	22,430000	56,275000
3,473180	766,633102	24,781	0,182541	22,430000	56,275000
3,486468	779,856413	25,191	0,188068	22,430000	56,275000
3,499852	791,772578	25,591	0,193049	22,430000	56,275000
3,513145	804,757588	26,009	0,198477	22,430000	56,275000
3,526546	816,833788	26,411	0,203525	22,430000	56,260000
3,539875	829,263934	26,815	0,208721	22,430000	56,260000
3,553138	842,076060	27,217	0,214076	22,430000	56,260000
3,566509	856,216358	27,622	0,219987	22,430000	56,260000
3,579785	867,119748	28,024	0,224544	22,430000	56,260000
3,593184	879,472796	28,425	0,229708	22,420000	56,235000
3,606509	891,793137	28,832	0,234858	22,420000	56,235000
3,619848	906,075948	29,236	0,240828	22,420000	56,235000
3,633184	917,225815	29,650	0,245489	22,420000	56,235000
3,646482	929,712031	30,050	0,250708	22,420000	56,235000
3,659756	943,409605	30,455	0,256434	22,420000	56,260000
3,659788	943,147942	30,859	0,256324	22,420000	56,260000
3,659803	942,808014	31,261	0,256182	22,420000	56,260000
3,659769	942,554529	31,664	0,256076	22,420000	56,260000
3,659893	942,103628	32,066	0,255888	22,420000	56,260000
3,659865	941,549931	32,478	0,255656	22,420000	56,260000
3,659793	941,818602	32,890	0,255769	22,420000	56,260000
3,659804	941,384055	33,303	0,255587	22,420000	56,260000
3,659799	941,438958	33,714	0,255610	22,420000	56,260000
3,659853	941,208835	34,116	0,255514	22,420000	56,260000
3,659787	940,694855	34,519	0,255299	22,430000	56,235000
3,659808	940,687846	34,922	0,255296	22,430000	56,235000
3,659830	940,338573	35,324	0,255150	22,430000	56,235000
3,659777	940,101441	35,736	0,255051	22,430000	56,235000
3,659814	939,840946	36,145	0,254942	22,430000	56,235000
3,659806	940,038362	36,555	0,255024	22,420000	56,250000
3,659815	939,911035	36,956	0,254971	22,420000	56,250000
3,659809	939,476488	37,361	0,254790	22,420000	56,250000
3,659789	939,627177	37,766	0,254853	22,420000	56,250000
3,659767	939,555921	38,167	0,254823	22,420000	56,250000
3,659818	939,088666	38,572	0,254627	22,420000	56,250000
3,659814	939,002224	38,977	0,254591	22,420000	56,250000
3,659753	939,357338	39,388	0,254740	22,420000	56,250000
3,659830	938,970684	39,794	0,254578	22,420000	56,250000
3,659785	938,249944	40,199	0,254277	22,420000	56,250000
3,659831	939,025587	40,608	0,254601	22,420000	56,250000
3,646438	925,858347	41,011	0,249097	22,420000	56,250000
3,633143	913,070752	41,415	0,243752	22,420000	56,250000
3,619824	900,561173	41,819	0,238523	22,420000	56,250000
3,606534	888,382177	42,220	0,233432	22,420000	56,250000
3,593144	874,313135	42,621	0,227551	22,420000	56,250000
3,579830	861,984618	43,027	0,222398	22,420000	56,250000
3,566515	850,043922	43,439	0,217407	22,420000	56,250000
3,553173	837,628962	43,860	0,212217	22,420000	56,250000
3,539817	824,707031	44,263	0,206816	22,420000	56,250000
3,526495	810,305071	44,667	0,200796	22,430000	56,275000
3,513161	798,878355	45,068	0,196020	22,430000	56,275000
3,499819	785,711115	45,472	0,190516	22,430000	56,275000
3,486523	773,224899	45,874	0,185296	22,430000	56,275000
3,473141	760,097376	46,275	0,179809	22,430000	56,275000
3,459831	747,072649	46,676	0,174365	22,430000	56,275000
3,446543	734,901830	47,078	0,169277	22,430000	56,275000
3,433183	722,574480	47,480	0,164125	22,430000	56,275000
3,419844	709,889681	47,885	0,158822	22,430000	56,275000
3,406551	696,951396	48,299	0,153414	22,430000	56,235000
3,393199	683,982740	48,715	0,147993	22,430000	56,235000
3,379777	671,258224	49,118	0,142674	22,430000	56,235000
3,366512	657,046669	49,521	0,136734	22,430000	56,235000
3,353181	645,944696	49,927	0,132093	22,430000	56,235000
3,339834	631,804398	50,328	0,126183	22,430000	56,235000
3,326512	620,045931	50,729	0,121268	22,430000	56,235000
3,313217	606,593666	51,131	0,115645	22,430000	56,235000
3,299817	595,499869	51,534	0,111007	22,430000	56,235000
3,286492	582,743814	51,936	0,105675	22,430000	56,235000
3,273197	568,563799	52,348	0,099748	22,420000	56,250000
3,259881	555,744664	52,765	0,094390	22,420000	56,250000
3,246593	544,777026	53,172	0,089805	22,420000	56,250000
3,233192	531,831732	53,575	0,084394	22,420000	56,250000
3,219912	519,360702	53,978	0,079181	22,420000	56,250000
3,206571	506,264719	54,380	0,073707	22,420000	56,275000
3,193203	492,266933	54,783	0,067856	22,420000	56,275000
3,179905	481,481525	55,200	0,063348	22,420000	56,275000
3,166586	467,404306	55,606	0,057463	22,420000	56,275000
3,153232	455,266195	56,008	0,052390	22,420000	56,275000
3,139943	443,807940	56,420	0,047600	22,430000	56,260000
3,126575	430,925725	56,823	0,042215	22,430000	56,260000
3,113258	417,441920	57,226	0,036579	22,430000	56,260000
3,099948	404,543352	57,634	0,031187	22,430000	56,260000
3,086591	391,732394	58,036	0,025833	22,430000	56,260000
3,073255	381,532222	58,438	0,021569	22,440000	56,250000
3,059877	368,396522	58,855	0,016078	22,440000	56,250000
3,046592	355,253813	59,261	0,010584	22,440000	56,250000
3,033221	342,363421	59,686	0,005196	22,440000	56,250000
3,019945	330,200779	60,089	0,000112	22,440000	56,250000
3,006552	317,968049	60,505	-0,005001	22,430000	56,250000
2,993232	305,195640	60,918	-0,010340	22,430000	56,250000
2,979912	292,646344	61,333	-0,015585	22,430000	56,250000
2,966645	278,355357	61,736	-0,021559	22,430000	56,250000
2,953287	265,963760	62,138	-0,026739	22,430000	56,250000
2,939948	253,738038	62,541	-0,031849	22,430000	56,250000
2,926608	241,464423	62,944	-0,036979	22,430000	56,250000
2,913228	228,741075	63,346	-0,042298	22,430000	56,250000
2,899927	216,301585	63,762	-0,047498	22,430000	56,250000
2,886501	203,893634	64,181	-0,052684	22,430000	56,250000
2,873373	192,009009	64,586	-0,057652	22,430000	56,250000
2,859937	179,418828	64,987	-0,062915	22,430000	56,250000
2,846655	167,098488	65,389	-0,068064	22,430000	56,250000
2,833325	154,199920	65,790	-0,073456	22,430000	56,250000
2,819953	141,745243	66,210	-0,078662	22,430000	56,250000
2,806598	129,267204	66,618	-0,083878	22,420000	56,260000
2,793314	115,133915	67,038	-0,089786	22,420000	56,260000
2,779961	102,947910	67,444	-0,094879	22,420000	56,260000
2,766620	91,910184	67,878	-0,099493	22,420000	56,260000
2,753315	79,533773	68,282	-0,104667	22,430000	56,250000
2,739961	66,714638	68,692	-0,110025	22,430000	56,250000
2,726588	54,069556	69,096	-0,115311	22,430000	56,250000
2,713237	42,176753	69,498	-0,120282	22,430000	56,250000
2,699969	29,357618	69,912	-0,125640	22,430000	56,250000
2,686600	17,163436	70,334	-0,130737	22,430000	56,275000
2,673359	3,253261	70,737	-0,136552	22,430000	56,275000
2,659976	-8,751682	71,141	-0,141570	22,430000	56,275000